time (s)	coil I (A)	last det (V)	int current (uC)
4440.674284	0.461621	404.101562	-64.941406
4440.676283	0.765427	404.101562	-64.941406
4440.678284	1.033771	404.101562	-64.941406
4440.680283	1.089064	404.101562	-64.941406
4440.682283	1.085749	11.943241	0.281657
4441.700835	0.771104	113.476562	328.515625
4441.702838	1.036592	113.476562	328.515625
4441.704839	1.087648	113.476562	328.515625
4441.706844	1.084625	11.930878	0.282640
4442.756912	0.511329	401.269531	-62.890625
4442.760911	1.058411	401.269531	-62.890625
4442.762914	1.087302	401.269531	-62.890625
4442.764913	1.084628	11.930904	0.242654
4443.785459	0.344511	115.722656	322.656250
4443.787462	0.652597	115.722656	322.656250
4443.789463	0.947272	115.722656	322.656250
4443.791464	1.089699	115.722656	322.656250
4443.793465	1.087195	11.959148	0.252068
4444.830462	0.426044	412.207031	-61.523437
4444.832465	0.730936	412.207031	-61.523437
4444.834466	1.010898	412.207031	-61.523437
4444.836467	1.088814	412.207031	-61.523437
4444.838465	1.085396	11.939360	0.290575
4445.855402	0.648257	118.164062	315.917969
4445.857403	0.943246	118.164062	315.917969
4445.859404	1.088288	118.164062	315.917969
4445.861404	1.085957	11.945528	0.291573
4446.903972	0.331537	406.738281	-60.546875
4446.905976	0.640174	406.738281	-60.546875
4446.907978	0.936660	406.738281	-60.546875
4446.909979	1.088240	406.738281	-60.546875
4446.911978	1.086289	11.949179	0.304781
4447.932024	0.717618	118.945312	312.792969
4447.934024	1.001201	118.945312	312.792969
4447.936025	1.088944	118.945312	312.792969
4447.938026	1.085498	11.940475	0.278678
4448.987005	0.366958	413.476562	-61.621094
4448.989006	0.674144	413.476562	-61.621094
4448.991006	0.966329	413.476562	-61.621094
4448.993007	1.089114	413.476562	-61.621094
4448.995008	1.085997	11.945962	0.260614
4450.021055	0.573390	108.593750	338.183594
4450.025052	1.078897	108.593750	338.183594
4450.027056	1.086652	108.593750	338.183594
4450.029053	1.084213	11.926349	0.259737
4451.059160	0.694388	409.277344	-57.714844
4451.061161	0.983175	409.277344	-57.714844
4451.063161	1.089431	409.277344	-57.714844
4451.065161	1.086053	11.946582	0.294736
4452.091202	0.437667	112.109375	330.273437
4452.095202	1.018469	112.109375	330.273437
4452.097206	1.088372	112.109375	330.273437
4452.099204	1.085058	11.935637	0.251631
4453.133235	0.609577	412.500000	-58.203125
4453.135242	0.906992	412.500000	-58.203125
4453.137238	1.086904	412.500000	-58.203125
4453.139237	1.088102	412.500000	-58.203125
4453.141237	1.085648	11.942123	0.262501
4454.173288	0.560921	112.402344	331.250000
4454.175291	0.861222	112.402344	331.250000
4454.177290	1.076159	112.402344	331.250000
4454.179291	1.087157	112.402344	331.250000
4454.181292	1.084668	11.931347	0.353786
4455.209307	0.676117	402.832031	-57.128906
4455.211308	0.967998	402.832031	-57.128906
4455.213308	1.089722	402.832031	-57.128906
4455.215307	1.086598	11.952573	0.287502
4456.255367	0.448516	110.449219	338.671875
4456.257368	0.752657	110.449219	338.671875
4456.261367	1.088189	110.449219	338.671875
4456.263368	1.085028	110.449219	338.671875
4456.265376	1.083187	11.915058	0.275147
4457.279400	0.529757	403.125000	-58.203125
4457.281400	0.831010	403.125000	-58.203125
4457.283400	1.065554	403.125000	-58.203125
4457.287400	1.084317	403.125000	-58.203125
4457.289400	1.082486	11.907348	0.290835
4458.331452	0.593645	115.429687	325.097656
4458.335453	1.083396	115.429687	325.097656
4458.337453	1.086969	115.429687	325.097656
4458.339453	1.084570	11.930266	0.259953
4459.360054	0.511795	399.414062	-61.816406
4459.362057	0.813597	399.414062	-61.816406
4459.364058	1.058403	399.414062	-61.816406
4459.366055	1.087093	399.414062	-61.816406
4459.368058	1.084369	11.928060	0.275171
4460.412101	0.805183	108.300781	344.824219
4460.414104	1.054344	108.300781	344.824219
4460.416103	1.086899	108.300781	344.824219
4460.418104	1.084169	11.925862	0.251241
4461.442136	0.479717	387.597656	-59.082031
4461.444137	0.782687	387.597656	-59.082031
4461.448137	1.087824	387.597656	-59.082031
4461.450138	1.084858	387.597656	-59.082031
4461.452138	1.083118	11.914296	0.265745
4462.480200	0.594579	109.863281	343.554687
4462.482202	0.892843	109.863281	343.554687
4462.484202	1.082985	109.863281	343.554687
4462.486204	1.086191	109.863281	343.554687
4462.488203	1.083868	11.922547	0.276557
4463.516236	0.396846	401.855469	-63.085937
4463.518240	0.702761	401.855469	-63.085937
4463.520238	0.989796	401.855469	-63.085937
4463.522239	1.089309	401.855469	-63.085937
4463.524237	1.085897	11.944862	0.265614
4464.556279	0.501905	110.351562	342.871094
4464.558279	0.803975	110.351562	342.871094
4464.560283	1.054470	110.351562	342.871094
4464.562282	1.087428	110.351562	342.871094
4464.564283	1.084641	11.931055	0.244156
4465.600305	0.352785	402.050781	-59.472656
4465.602307	0.660377	402.050781	-59.472656
4465.604308	0.954075	402.050781	-59.472656
4465.606307	0.960625	402.050781	-59.472656
4465.608308	1.086547	11.952023	0.270950
4466.628896	0.586796	109.667969	345.214844
4466.630898	0.885435	109.667969	345.214844
4466.632898	1.081279	109.667969	345.214844
4466.634898	1.082353	109.667969	345.214844
4466.636899	1.083619	11.919809	0.495998
4467.676965	0.508974	403.222656	-57.812500
4467.680965	1.056960	403.222656	-57.812500
4467.682968	1.086922	403.222656	-57.812500
4467.684967	1.084295	11.927244	0.280223
4468.703019	0.431730	114.746094	328.906250
4468.705019	0.736321	114.746094	328.906250
4468.707020	1.014296	114.746094	328.906250
4468.709018	1.087779	114.746094	328.906250
4468.711022	1.084529	11.929814	0.270243
4469.761036	0.777019	404.687500	-57.031250
4469.763039	1.039974	404.687500	-57.031250
4469.765039	1.087634	404.687500	-57.031250
4469.771036	1.081458	11.896040	0.247918
4470.789082	1.039477	111.230469	336.914062
4470.791086	1.086756	111.230469	336.914062
4470.793084	1.083840	11.922237	0.249245
4471.837157	1.073003	412.597656	-56.542969
4471.839160	1.085884	412.597656	-56.542969
4471.841160	1.083417	11.917583	0.264565
4472.859696	0.393371	105.664062	349.414062
4472.861700	0.699277	105.664062	349.414062
4472.863699	0.987077	105.664062	349.414062
4472.865698	1.090177	105.664062	349.414062
4472.867700	1.086771	11.954478	0.247334
4473.909791	0.703571	417.968750	-57.031250
4473.911790	0.990299	417.968750	-57.031250
4473.913791	1.089177	417.968750	-57.031250
4473.915792	1.085734	11.943073	0.269390
4474.934746	0.379074	111.718750	333.984375
4474.936746	0.685643	111.718750	333.984375
4474.938749	0.975814	111.718750	333.984375
4474.940747	1.088982	111.718750	333.984375
4474.942747	1.085715	11.942868	0.269385
4475.985301	0.449497	411.328125	-56.835937
4475.987304	0.753429	411.328125	-56.835937
4475.989302	0.762638	411.328125	-56.835937
4475.991302	1.087440	411.328125	-56.835937
4475.993302	1.084327	11.927598	0.257227
4477.019844	0.805028	103.906250	353.027344
4477.021846	1.054293	103.906250	353.027344
4477.023846	1.086891	103.906250	353.027344
4477.025845	1.084161	11.925773	0.248962
4478.059889	0.282262	408.300781	-54.785156
4478.061889	0.297313	408.300781	-54.785156
4478.063889	0.891101	408.300781	-54.785156
4478.067887	1.086091	408.300781	-54.785156
4478.069889	1.083881	408.300781	-54.785156
4478.071890	1.082138	11.903520	0.275638
4479.091947	0.261154	104.296875	353.613281
4479.093949	0.572355	104.296875	353.613281
4479.095954	0.871839	104.296875	353.613281
4479.097961	1.078279	104.296875	353.613281
4479.099964	1.081006	104.296875	353.613281
4479.101963	1.083496	11.918461	0.248425
4480.138022	0.269416	408.300781	-54.492187
4480.140025	0.580450	408.300781	-54.492187
4480.142025	0.879400	408.300781	-54.492187
4480.144025	1.080895	408.300781	-54.492187
4480.148022	1.084744	408.300781	-54.492187
4480.150025	1.083213	11.915341	0.259466
4481.166075	0.345322	109.863281	337.500000
4481.168076	0.653124	109.863281	337.500000
4481.170075	0.947475	109.863281	337.500000
4481.172077	1.087988	109.863281	337.500000
4481.174077	1.085445	11.939890	0.260787
4482.214598	0.337135	412.304687	-56.445312
4482.216600	0.645343	412.304687	-56.445312
4482.218603	0.940390	412.304687	-56.445312
4482.220601	1.088570	412.304687	-56.445312
4482.222601	1.086310	11.949409	0.269633
4483.245171	0.405134	104.882812	353.125000
4483.247173	0.710610	104.882812	353.125000
4483.249173	0.995887	104.882812	353.125000
4483.251172	1.089275	104.882812	353.125000
4483.253172	1.085810	11.943906	0.240942
4484.295209	1.197255	398.925781	-53.710937
4484.297211	0.697586	398.925781	-53.710937
4484.299212	0.985599	398.925781	-53.710937
4484.301211	1.089221	398.925781	-53.710937
4484.303214	1.085833	11.944162	0.262069
4485.325242	0.840760	106.445312	349.707031
4485.327244	1.068983	106.445312	349.707031
4485.329242	1.086367	106.445312	349.707031
4485.331244	1.083857	11.922422	0.251941
4486.369811	0.468898	404.101562	-54.785156
4486.371813	0.772135	404.101562	-54.785156
4486.373813	1.036909	404.101562	-54.785156
4486.375813	1.087195	404.101562	-54.785156
4486.377813	1.084249	11.926739	0.259264
4487.395894	0.553168	110.449219	340.332031
4487.397896	0.853380	110.449219	340.332031
4487.399900	1.072958	110.449219	340.332031
4487.401901	1.086080	110.449219	340.332031
4487.403902	1.083621	11.919827	0.266167
4488.446836	0.521484	405.957031	-57.324219
4488.450837	1.061951	405.957031	-57.324219
4488.452836	1.086426	405.957031	-57.324219
4488.454837	1.083873	11.922601	0.261991
4489.474874	0.355696	102.636719	361.816406
4489.476874	0.663121	102.636719	361.816406
4489.478874	0.956413	102.636719	361.816406
4489.480875	1.088890	102.636719	361.816406
4489.482875	1.086074	11.946813	0.249039
4490.522932	0.513073	397.753906	-57.714844
4490.524934	0.814642	397.753906	-57.714844
4490.526933	1.058225	397.753906	-57.714844
4490.528934	1.086105	397.753906	-57.714844
4490.530933	1.083506	11.918569	0.236743
4491.556962	0.402973	104.589844	358.691406
4491.558962	0.708449	104.589844	358.691406
4491.560964	0.994511	104.589844	358.691406
4491.562963	1.090750	104.589844	358.691406
4491.564965	1.087270	11.959972	0.237647
4492.601006	1.056442	388.574219	-57.324219
4492.603008	1.086551	388.574219	-57.324219
4492.605008	1.083924	11.923167	0.256398
4493.637050	0.690424	103.027344	362.890625
4493.639050	0.979848	103.027344	362.890625
4493.641050	1.089356	103.027344	362.890625
4493.643052	1.086012	11.946130	0.252705
4494.671089	0.500818	381.347656	-55.468750
4494.673089	0.802787	381.347656	-55.468750
4494.675090	1.053115	381.347656	-55.468750
4494.677089	1.086625	381.347656	-55.468750
4494.679090	1.083940	11.923345	0.245734
4495.717157	0.587550	101.562500	363.769531
4495.719157	0.886067	101.562500	363.769531
4495.721158	1.081487	101.562500	363.769531
4495.723158	1.086010	101.562500	363.769531
4495.727156	1.081954	11.901490	0.244321
4496.747225	0.730801	380.957031	-52.929687
4496.749226	1.010385	380.957031	-52.929687
4496.751230	1.087691	380.957031	-52.929687
4496.753228	1.084507	11.929574	0.250540
4497.791309	0.357415	105.859375	351.562500
4497.793310	0.664778	105.859375	351.562500
4497.795310	0.957813	105.859375	351.562500
4497.797311	1.088501	105.859375	351.562500
4497.799310	1.085648	11.942133	0.245296
4498.819394	0.355771	392.187500	-53.710937
4498.821397	0.663120	392.187500	-53.710937
4498.823398	0.956424	392.187500	-53.710937
4498.825398	1.087997	392.187500	-53.710937
4498.827396	1.085301	11.938313	0.256815
4499.869460	0.267043	105.859375	352.050781
4499.871462	0.578070	105.859375	352.050781
4499.873462	0.877096	105.859375	352.050781
4499.875462	1.079690	105.859375	352.050781
4499.877462	1.086287	105.859375	352.050781
4499.879462	1.083920	11.923122	0.234838
4500.900025	0.649505	399.316406	-52.636719
4500.902028	0.944117	399.316406	-52.636719
4500.904028	1.088091	399.316406	-52.636719
4500.906029	1.085802	11.943826	0.244821
4501.946048	0.570619	102.148437	362.402344
4501.948050	0.870141	102.148437	362.402344
4501.950051	1.077404	102.148437	362.402344
4501.952050	1.085585	102.148437	362.402344
4501.954049	1.083158	11.914740	0.235437
4502.980159	0.783980	404.296875	-52.246094
4502.982161	1.043283	404.296875	-52.246094
4502.984161	1.086607	404.296875	-52.246094
4502.986159	1.083849	11.922344	0.249645
4504.020779	0.431418	103.515625	359.179687
4504.022780	0.735909	103.515625	359.179687
4504.024782	1.014003	103.515625	359.179687
4504.026779	1.087656	103.515625	359.179687
4504.028781	1.084409	11.928493	0.238041
4505.056820	0.629051	411.816406	-52.246094
4505.058822	0.925163	411.816406	-52.246094
4505.060822	0.932155	411.816406	-52.246094
4505.062822	1.085461	11.940067	0.263731
4506.095379	0.583681	103.710937	357.031250
4506.097381	0.882445	103.710937	357.031250
4506.099383	1.080557	103.710937	357.031250
4506.101381	1.085943	103.710937	357.031250
4506.103383	1.083600	11.919597	0.438707
4507.135933	0.765706	411.621094	-52.246094
4507.137934	1.033611	411.621094	-52.246094
4507.139938	1.088742	411.621094	-52.246094
4507.141941	1.085544	11.940981	0.239699
4508.168913	0.338569	99.707031	366.210937
4508.170916	0.646545	99.707031	366.210937
4508.172915	0.941422	99.707031	366.210937
4508.174916	1.088121	99.707031	366.210937
4508.176915	1.085907	11.944978	0.235279
4509.213004	0.515714	404.785156	-51.757812
4509.217005	1.059291	404.785156	-51.757812
4509.221004	1.083413	404.785156	-51.757812
4509.223005	1.081631	11.897937	0.242174
4510.247030	0.640287	97.265625	372.265625
4510.249030	0.654308	97.265625	372.265625
4510.251032	1.087281	97.265625	372.265625
4510.253033	1.085512	11.940635	0.689701
4511.293045	0.792366	411.425781	-52.832031
4511.295049	1.047842	411.425781	-52.832031
4511.297048	1.086709	411.425781	-52.832031
4511.299048	1.083949	11.923443	0.243567
4512.323078	0.623113	104.101562	353.906250
4512.325078	0.919532	104.101562	353.906250
4512.329079	1.085183	104.101562	353.906250
4512.331080	1.082960	11.912559	0.231248
4513.370070	0.769623	404.199219	-51.855469
4513.372072	1.035120	404.199219	-51.855469
4513.374072	1.086597	404.199219	-51.855469
4513.376071	1.083651	11.920163	0.236768
4514.396624	0.456843	97.949219	370.605469
4514.398627	0.760356	97.949219	370.605469
4514.400627	1.029659	97.949219	370.605469
4514.402626	1.086916	97.949219	370.605469
4514.404626	1.083983	11.923815	0.230034
4515.442678	0.301657	402.539062	-51.464844
4515.444679	0.611136	402.539062	-51.464844
4515.446688	0.908236	402.539062	-51.464844
4515.448685	1.084529	402.539062	-51.464844
4515.450684	1.085150	402.539062	-51.464844
4515.454683	1.081306	11.894364	0.247377
4516.474679	0.591424	101.855469	359.667969
4516.476681	0.889562	101.855469	359.667969
4516.478689	1.082153	101.855469	359.667969
4516.480682	1.085939	101.855469	359.667969
4516.482686	1.085688	11.942567	0.473509
4517.519669	0.512775	394.628906	-49.902344
4517.521669	0.814390	394.628906	-49.902344
4517.523670	1.058286	394.628906	-49.902344
4517.525669	1.086432	394.628906	-49.902344
4517.527671	1.083820	11.922024	0.242945
4518.553741	0.485820	96.386719	375.683594
4518.555742	0.788310	96.386719	375.683594
4518.557743	1.045691	96.386719	375.683594
4518.559742	1.086677	96.386719	375.683594
4518.563741	1.082049	11.902544	0.226746
4519.595783	0.347157	396.484375	-50.000000
4519.597786	0.654791	396.484375	-50.000000
4519.601784	1.088571	396.484375	-50.000000
4519.603785	1.085893	396.484375	-50.000000
4519.605786	1.083847	11.922317	0.244741
4520.627860	0.410367	97.460937	373.242187
4520.629861	0.715516	97.460937	373.242187
4520.631860	0.999407	97.460937	373.242187
4520.633861	1.088555	97.460937	373.242187
4520.635863	1.085225	11.937480	0.226750
4521.671917	0.578778	406.738281	-50.488281
4521.673921	0.877621	406.738281	-50.488281
4521.675920	1.080069	406.738281	-50.488281
4521.677921	1.086663	406.738281	-50.488281
4521.679920	1.084263	11.926898	0.422190
4522.708463	0.696527	103.515625	359.179687
4522.710465	0.984583	103.515625	359.179687
4522.712464	1.088952	103.515625	359.179687
4522.714465	1.085640	11.942045	0.224360
4523.750515	0.715940	406.933594	-49.707031
4523.752516	0.999649	406.933594	-49.707031
4523.754518	1.088227	406.933594	-49.707031
4523.756518	1.084989	11.934875	0.234118
4524.787115	0.684930	97.070312	377.636719
4524.789116	0.975249	97.070312	377.636719
4524.791115	1.089423	97.070312	377.636719
4524.793115	1.086101	11.947113	0.223790
4525.821198	0.347177	397.265625	-48.437500
4525.823199	0.654961	397.265625	-48.437500
4525.825198	0.949090	397.265625	-48.437500
4525.827198	1.088650	397.265625	-48.437500
4525.829200	1.086001	11.946006	0.240896
4526.863299	0.375055	97.851562	376.660156
4526.865299	0.681641	97.851562	376.660156
4526.867299	0.972333	97.851562	376.660156
4526.869299	1.088531	97.851562	376.660156
4526.871300	1.085339	11.938730	0.226922
4527.897317	0.499136	399.902344	-49.316406
4527.901316	1.052097	399.902344	-49.316406
4527.903320	1.086536	399.902344	-49.316406
4527.905318	1.083783	11.921608	0.231391
4528.941359	0.268274	100.878906	371.191406
4528.943359	0.579128	100.878906	371.191406
4528.945358	0.878018	100.878906	371.191406
4528.947358	1.079496	100.878906	371.191406
4528.949359	1.085784	100.878906	371.191406
4528.951357	1.085698	11.942682	0.224062
4529.973427	0.648398	397.656250	-49.121094
4529.977425	1.086968	397.656250	-49.121094
4529.979429	1.084761	397.656250	-49.121094
4529.981427	1.082643	11.909068	0.235739
4531.020010	0.341493	100.292969	370.898437
4531.022010	0.649282	100.292969	370.898437
4531.024010	0.943810	100.292969	370.898437
4531.026012	1.086963	100.292969	370.898437
4531.028009	1.084691	11.931604	0.224226
4532.046075	0.345350	388.574219	-49.902344
4532.048078	0.653026	388.574219	-49.902344
4532.050077	0.947243	388.574219	-49.902344
4532.052077	1.087601	388.574219	-49.902344
4532.054077	1.085144	11.936584	0.236889
4533.096151	0.498214	101.074219	368.359375
4533.098153	0.800185	101.074219	368.359375
4533.100156	1.051558	101.074219	368.359375
4533.102160	1.086347	101.074219	368.359375
4533.104163	1.083560	11.919161	0.228315
4534.124701	0.248952	376.562500	-49.804687
4534.126704	0.560588	376.562500	-49.804687
4534.128704	0.860511	376.562500	-49.804687
4534.130708	1.075089	376.562500	-49.804687
4534.132707	1.086156	376.562500	-49.804687
4534.134707	1.083715	11.920863	0.233455
4535.172819	0.497528	101.562500	367.871094
4535.174819	0.799579	101.562500	367.871094
4535.178820	1.086673	101.562500	367.871094
4535.180821	1.083902	101.562500	367.871094
4535.182822	1.082087	11.902952	0.218746
4536.207793	0.981979	371.679687	-50.292969
4536.209795	1.088500	371.679687	-50.292969
4536.213794	1.083356	11.916911	0.223483
4537.245904	0.338584	96.093750	384.570312
4537.247904	0.646546	96.093750	384.570312
4537.249903	0.941239	96.093750	384.570312
4537.251905	1.087113	96.093750	384.570312
4537.253903	1.084893	11.933821	0.225069
4538.281980	0.385044	391.699219	-53.027344
4538.283982	0.691130	391.699219	-53.027344
4538.285981	0.980168	391.699219	-53.027344
4538.287982	1.088480	391.699219	-53.027344
4538.289982	1.085249	11.937737	0.222813
4539.320016	0.339131	95.996094	387.109375
4539.322019	0.647053	95.996094	387.109375
4539.324018	0.941741	95.996094	387.109375
4539.326017	1.088097	95.996094	387.109375
4539.328017	1.085889	11.944782	0.220862
4540.362026	0.511571	382.519531	-50.488281
4540.364030	0.813154	382.519531	-50.488281
4540.366030	1.057467	382.519531	-50.488281
4540.368031	1.086047	382.519531	-50.488281
4540.370030	1.083391	11.917300	0.225407
4541.394072	0.330537	95.605469	388.671875
4541.396074	0.638773	95.605469	388.671875
4541.398075	0.934196	95.605469	388.671875
4541.400074	1.087213	95.605469	388.671875
4541.402074	1.085484	11.940325	0.225308
4542.440129	0.417229	386.816406	-50.097656
4542.442130	0.722165	386.816406	-50.097656
4542.444130	1.004133	386.816406	-50.097656
4542.446130	1.087721	386.816406	-50.097656
4542.448131	1.084491	11.929406	0.223080
4543.468146	0.404949	100.097656	374.902344
4543.470147	0.710246	100.097656	374.902344
4543.472148	0.995429	100.097656	374.902344
4543.474147	1.088784	100.097656	374.902344
4543.476147	1.085413	11.939546	0.222624
4544.517074	1.824703	398.828125	-50.390625
4544.519075	0.683865	398.828125	-50.390625
4544.521074	0.974215	398.828125	-50.390625
4544.523075	1.089204	398.828125	-50.390625
4544.525073	1.085907	11.944978	0.225356
4545.549070	0.814229	92.871094	393.750000
4545.551071	1.058270	92.871094	393.750000
4545.553073	1.086498	92.871094	393.750000
4545.555073	1.083881	11.922688	0.211238
4546.595161	0.438663	390.527344	-48.437500
4546.597161	0.742759	390.527344	-48.437500
4546.599162	1.018311	390.527344	-48.437500
4546.601163	1.022871	390.527344	-48.437500
4546.603162	1.083737	11.921102	0.220404
4547.621208	0.439101	94.433594	387.304687
4547.623210	0.743128	94.433594	387.304687
4547.625210	1.018530	94.433594	387.304687
4547.627212	1.021991	94.433594	387.304687
4547.633208	1.080350	11.883845	0.220655
4548.669230	0.270611	393.945312	-48.242187
4548.671232	0.581276	393.945312	-48.242187
4548.673232	0.879980	393.945312	-48.242187
4548.675234	1.079813	393.945312	-48.242187
4548.677231	1.085679	393.945312	-48.242187
4548.679232	1.083302	11.916327	0.227825
4549.697288	0.346207	97.753906	378.515625
4549.699288	0.653726	97.753906	378.515625
4549.701290	0.947836	97.753906	378.515625
4549.703290	1.087415	97.753906	378.515625
4549.705289	1.085057	11.935627	0.217022
4550.747876	0.341307	394.042969	-48.339844
4550.749878	0.649182	394.042969	-48.339844
4550.753877	1.088367	394.042969	-48.339844
4550.755879	1.086074	394.042969	-48.339844
4550.757880	1.083940	11.923345	0.216189
4551.775963	0.419613	93.750000	388.867187
4551.777966	0.724402	93.750000	388.867187
4551.779972	1.005752	93.750000	388.867187
4551.781969	1.087980	93.750000	388.867187
4551.783968	1.084666	11.931330	0.209058
4552.824040	0.576432	395.019531	-47.949219
4552.826041	0.875421	395.019531	-47.949219
4552.828041	1.078584	395.019531	-47.949219
4552.830043	1.085519	395.019531	-47.949219
4552.832043	1.083146	11.914607	0.391308
4553.850073	0.257501	99.023437	374.316406
4553.852073	0.568602	99.023437	374.316406
4553.856071	1.076801	99.023437	374.316406
4553.858074	1.085570	99.023437	374.316406
4553.860073	1.083158	11.914740	0.219236
4554.900130	0.490383	389.453125	-46.972656
4554.902132	0.792641	389.453125	-46.972656
4554.904133	1.047972	389.453125	-46.972656
4554.906133	1.086676	389.453125	-46.972656
4554.910129	1.082001	11.902014	0.221561
4555.928154	0.399509	96.582031	381.152344
4555.930156	0.411739	96.582031	381.152344
4555.932156	0.991474	96.582031	381.152344
4555.934157	1.089767	96.582031	381.152344
4555.938156	1.084422	11.928644	0.217996
4556.976747	0.403293	392.382812	-48.339844
4556.978750	0.708690	392.382812	-48.339844
4556.980749	0.994297	392.382812	-48.339844
4556.982750	1.089220	392.382812	-48.339844
4556.984749	1.085783	11.943613	0.215727
4558.008803	1.039820	94.921875	384.960937
4558.010805	1.086755	94.921875	384.960937
4558.012806	1.083895	11.922849	0.207310
4559.053354	0.392845	387.011719	-47.949219
4559.055356	0.698595	387.011719	-47.949219
4559.057355	0.986222	387.011719	-47.949219
4559.059354	1.088613	387.011719	-47.949219
4559.061355	1.085270	11.937968	0.219095
4560.081425	0.546310	96.093750	381.542969
4560.083427	0.846654	96.093750	381.542969
4560.085428	1.070682	96.093750	381.542969
4560.087427	1.085964	96.093750	381.542969
4560.091424	1.081789	11.899682	0.242132
4561.130417	0.531038	389.843750	-48.632812
4561.132419	0.831909	389.843750	-48.632812
4561.134421	1.065284	389.843750	-48.632812
4561.136420	1.085841	389.843750	-48.632812
4561.138420	1.083350	11.916848	0.215299
4562.156494	0.378785	95.898437	383.496094
4562.158496	0.685043	95.898437	383.496094
4562.160496	0.975130	95.898437	383.496094
4562.162497	1.088524	95.898437	383.496094
4562.164496	1.085291	11.938197	0.216753
4563.205103	0.463150	382.226562	-48.535156
4563.207105	0.766354	382.226562	-48.535156
4563.209107	1.033937	382.226562	-48.535156
4563.211107	1.088408	382.226562	-48.535156
4563.213110	1.085253	11.937781	0.214294
4564.235154	0.369161	93.750000	390.234375
4564.237155	0.675748	93.750000	390.234375
4564.239157	0.967231	93.750000	390.234375
4564.241156	1.088182	93.750000	390.234375
4564.243155	1.085121	11.936327	0.209882
4565.279188	0.298241	374.121094	-48.925781
4565.281190	0.607794	374.121094	-48.925781
4565.283193	0.905007	374.121094	-48.925781
4565.285190	1.085450	374.121094	-48.925781
4565.289188	1.086615	374.121094	-48.925781
4565.291190	1.082873	11.911602	0.218554
4566.313215	0.264177	96.484375	385.351562
4566.315217	0.575129	96.484375	385.351562
4566.317218	0.874126	96.484375	385.351562
4566.319218	1.078149	96.484375	385.351562
4566.321217	1.085377	96.484375	385.351562
4566.323217	1.082956	11.912516	0.212150
4567.355784	0.602044	366.308594	-48.535156
4567.357786	0.899544	366.308594	-48.535156
4567.359786	1.083194	366.308594	-48.535156
4567.361787	1.085217	366.308594	-48.535156
4567.363787	1.082939	11.912330	0.214606
4568.393829	0.636222	94.921875	389.453125
4568.395829	0.931699	94.921875	389.453125
4568.397830	1.087143	94.921875	389.453125
4568.399830	1.085532	11.940857	0.214895
4569.431880	0.897311	365.136719	-48.242187
4569.433882	1.082742	365.136719	-48.242187
4569.435881	1.085207	365.136719	-48.242187
4569.437882	1.082948	11.912426	0.489280
4570.469949	0.316519	96.191406	383.007812
4570.471952	0.625298	96.191406	383.007812
4570.473953	0.921537	96.191406	383.007812
4570.475955	1.086423	96.191406	383.007812
4570.477956	1.085596	11.941557	0.212095
4571.502545	1.480957	388.476562	-48.925781
4571.504545	0.683862	388.476562	-48.925781
4571.506546	0.974164	388.476562	-48.925781
4571.508547	1.088777	388.476562	-48.925781
4571.510547	1.085536	11.940901	0.209600
4572.548544	0.294631	91.406250	395.312500
4572.550547	0.604281	91.406250	395.312500
4572.552547	0.901669	91.406250	395.312500
4572.554547	1.084220	91.406250	395.312500
4572.556550	1.085917	91.406250	395.312500
4572.558554	1.083677	11.920446	0.208162
4573.578667	0.529343	370.117187	-46.582031
4573.580669	0.830199	370.117187	-46.582031
4573.582668	1.064339	370.117187	-46.582031
4573.584667	1.085603	370.117187	-46.582031
4573.586669	1.083102	11.914120	0.213576
4574.626757	0.454874	91.308594	394.628906
4574.628758	0.758354	91.308594	394.628906
4574.630757	1.028421	91.308594	394.628906
4574.632759	1.086677	91.308594	394.628906
4574.634758	1.083671	11.920384	0.206518
4575.654821	0.450434	377.343750	-46.484375
4575.656823	0.461953	377.343750	-46.484375
4575.658822	1.025692	377.343750	-46.484375
4575.660824	1.086857	377.343750	-46.484375
4575.662822	1.083779	11.921563	0.209589
4576.702854	0.445589	90.429687	397.460937
4576.704857	0.749357	90.429687	397.460937
4576.706855	0.761037	90.429687	397.460937
4576.708855	1.086974	90.429687	397.460937
4576.710855	1.083912	11.923035	0.201117
4577.732878	0.662421	389.648437	-46.386719
4577.734880	0.955633	389.648437	-46.386719
4577.736878	1.088164	389.648437	-46.386719
4577.738879	1.085442	11.939864	0.212513
4578.777465	0.444196	96.191406	382.324219
4578.779466	0.748003	96.191406	382.324219
4578.781467	1.021654	96.191406	382.324219
4578.783466	1.086465	96.191406	382.324219
4578.785467	1.083322	11.916538	0.204585
4579.810463	0.722737	376.660156	-44.824219
4579.812463	1.004391	376.660156	-44.824219
4579.814463	1.087430	376.660156	-44.824219
4579.818463	1.082393	11.906320	0.209841
4580.854493	0.576867	90.332031	398.144531
4580.856493	0.875820	90.332031	398.144531
4580.858494	1.078868	90.332031	398.144531
4580.862492	1.083256	90.332031	398.144531
4580.864494	1.081670	11.898371	0.377081
4581.886609	0.328149	390.136719	-45.800781
4581.888611	0.636439	390.136719	-45.800781
4581.890611	0.931864	390.136719	-45.800781
4581.892611	1.086544	390.136719	-45.800781
4581.894611	1.084957	11.934528	0.207021
4582.928674	0.431239	93.066406	389.550781
4582.930677	0.735562	93.066406	389.550781
4582.932677	1.013300	93.066406	389.550781
4582.934676	1.086676	93.066406	389.550781
4582.936677	1.083596	11.919559	0.201089
4583.964719	0.549039	383.789062	-45.214844
4583.966721	0.849266	383.789062	-45.214844
4583.968720	1.071051	383.789062	-45.214844
4583.970721	1.085432	383.789062	-45.214844
4583.972719	1.082970	11.912674	0.255110
4585.004747	0.495144	92.382812	391.210937
4585.006749	0.797183	92.382812	391.210937
4585.008749	1.050330	92.382812	391.210937
4585.010749	1.086577	92.382812	391.210937
4585.012750	1.083826	11.922087	0.195772
4586.040832	0.543412	385.156250	-44.531250
4586.042832	0.843765	385.156250	-44.531250
4586.044834	1.069703	385.156250	-44.531250
4586.046833	1.086090	385.156250	-44.531250
4586.048832	1.085978	11.945757	0.238622
4587.078850	0.415528	89.843750	398.828125
4587.080853	0.720462	89.843750	398.828125
4587.082855	1.002775	89.843750	398.828125
4587.084851	1.088041	89.843750	398.828125
4587.086852	1.084794	11.932738	0.204605
4588.118899	0.520221	397.949219	-45.312500
4588.120901	0.821325	397.949219	-45.312500
4588.122899	1.061142	397.949219	-45.312500
4588.124901	1.085980	397.949219	-45.312500
4588.126901	1.083451	11.917965	0.201052
4589.155482	0.329365	90.039062	400.195312
4589.157482	0.637653	90.039062	400.195312
4589.159482	0.932988	90.039062	400.195312
4589.161483	1.086362	90.039062	400.195312
4589.163483	1.084728	11.932012	0.196086
4590.195511	0.512829	401.269531	-45.410156
4590.197512	0.814183	401.269531	-45.410156
4590.199515	1.058136	401.269531	-45.410156
4590.201513	1.086270	401.269531	-45.410156
4590.203512	1.083645	11.920093	0.208208
4591.234480	0.687256	92.968750	392.578125
4591.236482	0.976952	92.968750	392.578125
4591.238481	1.088381	92.968750	392.578125
4591.240483	1.085150	11.936647	0.196030
4592.271033	0.493503	383.886719	-43.945312
4592.273032	0.795510	383.886719	-43.945312
4592.275035	1.048995	383.886719	-43.945312
4592.279033	1.083227	383.886719	-43.945312
4592.281033	1.081399	11.895392	0.204032
4593.307053	0.373172	90.917969	396.679687
4593.309055	0.679595	90.917969	396.679687
4593.311055	0.970593	90.917969	396.679687
4593.313055	1.088772	90.917969	396.679687
4593.315054	1.085588	11.941467	0.201417
4594.347055	0.550515	384.375000	-43.750000
4594.349058	0.850627	384.375000	-43.750000
4594.351057	1.071608	384.375000	-43.750000
4594.353058	1.085457	384.375000	-43.750000
4594.357056	1.081214	11.893354	0.263165
4595.385095	0.263986	91.992187	395.117187
4595.387099	0.574833	91.992187	395.117187
4595.389097	0.873835	91.992187	395.117187
4595.391099	1.078185	91.992187	395.117187
4595.393098	1.085439	91.992187	395.117187
4595.395099	1.082986	11.912851	0.196343
4596.423150	0.539478	391.210937	-44.140625
4596.425152	0.839985	391.210937	-44.140625
4596.427154	1.068129	391.210937	-44.140625
4596.429152	1.085742	391.210937	-44.140625
4596.431153	1.083211	11.915324	0.201101
4597.465199	0.637549	93.359375	393.066406
4597.467202	0.932857	93.359375	393.066406
4597.471199	1.085400	93.359375	393.066406
4597.473199	1.083260	11.915865	0.658852
4598.499764	0.840151	377.441406	-43.164062
4598.501766	1.068462	377.441406	-43.164062
4598.503768	1.086113	377.441406	-43.164062
4598.505768	1.083691	11.920597	0.212391
4599.541821	0.552637	94.531250	389.746094
4599.543821	0.852650	94.531250	389.746094
4599.545823	1.072061	94.531250	389.746094
4599.547822	1.085354	94.531250	389.746094
4599.549820	1.082880	11.911681	0.193769
4600.572400	0.384336	386.816406	-43.652344
4600.574402	0.690409	386.816406	-43.652344
4600.576400	0.979469	386.816406	-43.652344
4600.578402	1.088296	386.816406	-43.652344
4600.580401	1.085083	11.935912	0.199435
4601.620424	0.691286	88.281250	407.031250
4601.622426	0.980227	88.281250	407.031250
4601.624426	1.088249	88.281250	407.031250
4601.630426	1.081614	11.897750	0.191364
4602.648481	0.527695	391.015625	-44.628906
4602.650485	0.828576	391.015625	-44.628906
4602.652484	1.063719	391.015625	-44.628906
4602.654483	1.085596	391.015625	-44.628906
4602.656485	1.083056	11.913614	0.196287
4603.697090	0.690075	91.210937	398.828125
4603.699092	0.979157	91.210937	398.828125
4603.701092	1.088032	91.210937	398.828125
4603.703092	1.084824	11.933066	0.196305
4604.723142	0.377189	383.593750	-44.628906
4604.725141	0.683436	383.593750	-44.628906
4604.727144	0.973695	383.593750	-44.628906
4604.729144	1.088090	383.593750	-44.628906
4604.731145	1.085009	11.935096	0.199843
4605.771186	0.290702	91.406250	396.972656
4605.773187	0.600473	91.406250	396.972656
4605.775187	0.898066	91.406250	396.972656
4605.777186	1.082879	91.406250	396.972656
4605.779185	1.085121	91.406250	396.972656
4605.781187	1.082829	11.911115	0.196887
4606.801225	0.515076	374.804687	-44.921875
4606.803226	0.816354	374.804687	-44.921875
4606.805226	1.058599	374.804687	-44.921875
4606.807226	1.085607	374.804687	-44.921875
4606.809225	1.083031	11.913339	0.192583
4607.847321	0.370767	93.164062	390.820312
4607.849324	0.677389	93.164062	390.820312
4607.851323	0.968617	93.164062	390.820312
4607.853321	1.087941	93.164062	390.820312
4607.855322	1.084962	11.934582	0.196415
4608.878283	0.575113	377.832031	-45.996094
4608.882282	1.077669	377.832031	-45.996094
4608.884288	1.084844	377.832031	-45.996094
4608.886285	1.084658	11.931241	0.199228
4609.922870	0.512004	90.039062	402.636719
4609.924871	0.813401	90.039062	402.636719
4609.926871	1.057569	90.039062	402.636719
4609.928871	1.085937	90.039062	402.636719
4609.930871	1.083276	11.916034	0.191222
4610.956864	0.784539	366.406250	-45.507812
4610.958869	1.043437	366.406250	-45.507812
4610.960868	1.086238	366.406250	-45.507812
4610.962868	1.083432	11.917753	0.205791
4611.998891	0.645945	87.988281	410.156250
4612.000894	0.940721	87.988281	410.156250
4612.002895	1.087422	87.988281	410.156250
4612.004892	1.085279	11.938065	0.195486
4613.034984	0.538638	368.554687	-45.507812
4613.036984	0.551117	368.554687	-45.507812
4613.038988	1.067608	368.554687	-45.507812
4613.040987	1.085344	368.554687	-45.507812
4613.042987	1.082799	11.910788	0.193616
4614.075081	0.804715	91.406250	401.562500
4614.077084	1.053778	91.406250	401.562500
4614.079083	1.086318	91.406250	401.562500
4614.081083	1.083578	11.919356	0.191310
4615.111689	0.386869	375.585937	-45.214844
4615.113691	0.692706	375.585937	-45.214844
4615.115689	0.981494	375.585937	-45.214844
4615.117690	1.088715	375.585937	-45.214844
4615.119689	1.085404	11.939439	0.196405
4616.145741	0.514861	87.988281	411.914062
4616.147744	0.527998	87.988281	411.914062
4616.149744	1.058556	87.988281	411.914062
4616.151745	1.085620	87.988281	411.914062
4616.153744	1.082986	11.912851	0.200547
4617.189819	0.372764	386.132812	-45.703125
4617.191820	0.679159	386.132812	-45.703125
4617.195818	1.088311	386.132812	-45.703125
4617.197819	1.085200	386.132812	-45.703125
4617.199819	1.083188	11.915068	0.196303
4618.224371	0.883967	86.718750	416.210937
4618.226374	1.080249	86.718750	416.210937
4618.228373	1.085145	86.718750	416.210937
4618.230373	1.082683	11.909510	0.190441
4619.268449	0.518278	386.718750	-44.628906
4619.270450	0.819501	386.718750	-44.628906
4619.272450	1.060168	386.718750	-44.628906
4619.274451	1.085832	386.718750	-44.628906
4619.276451	1.083176	11.914935	0.194411
4620.299080	0.820083	91.503906	400.292969
4620.301080	1.060384	91.503906	400.292969
4620.303082	1.085679	91.503906	400.292969
4620.305081	1.083077	11.913844	0.188966
4621.343688	0.376692	373.437500	-43.457031
4621.345689	0.683014	373.437500	-43.457031
4621.347688	0.973347	373.437500	-43.457031
4621.349691	1.087676	373.437500	-43.457031
4621.351695	1.084545	11.930000	0.195208
4622.371799	0.378536	92.480469	396.191406
4622.373799	0.684667	92.480469	396.191406
4622.375800	0.974686	92.480469	396.191406
4622.377806	1.087836	92.480469	396.191406
4622.379807	1.084701	11.931710	0.196567
4623.420765	0.517500	373.632812	-42.578125
4623.422767	0.818756	373.632812	-42.578125
4623.424767	1.059609	373.632812	-42.578125
4623.426766	1.085403	373.632812	-42.578125
4623.428768	1.082816	11.910981	0.195549
4624.448851	0.359081	89.257812	406.542969
4624.450852	0.666037	89.257812	406.542969
4624.452852	0.958685	89.257812	406.542969
4624.454854	1.087373	89.257812	406.542969
4624.456852	1.084594	11.930532	0.188463
4625.496888	0.353400	390.332031	-43.457031
4625.498891	0.660573	390.332031	-43.457031
4625.500892	0.954019	390.332031	-43.457031
4625.502891	0.961330	390.332031	-43.457031
4625.504890	1.085252	11.937773	0.200128
4626.527444	0.729990	85.546875	416.210937
4626.531445	1.086684	85.546875	416.210937
4626.533446	1.083575	85.546875	416.210937
4626.537445	1.080173	11.881905	0.184427
4627.573526	0.507752	382.812500	-42.968750
4627.575525	0.809307	382.812500	-42.968750
4627.577526	1.055806	382.812500	-42.968750
4627.579526	1.086020	382.812500	-42.968750
4627.581525	1.083422	11.917638	0.192644
4628.601576	0.341675	90.917969	400.390625
4628.603577	0.649255	90.917969	400.390625
4628.605578	0.943709	90.917969	400.390625
4628.607577	1.087589	90.917969	400.390625
4628.611574	1.083255	11.915803	0.185265
4629.650082	0.567862	389.062500	-43.945312
4629.652083	0.867243	389.062500	-43.945312
4629.654087	1.076234	389.062500	-43.945312
4629.656084	1.085256	389.062500	-43.945312
4629.658084	1.082801	11.910813	0.335465
4630.679023	0.618151	90.917969	400.195312
4630.681023	0.914707	90.917969	400.195312
4630.683023	1.085266	90.917969	400.195312
4630.685023	1.085175	11.936921	0.561702
4631.725032	0.382784	387.109375	-43.945312
4631.727036	0.688805	387.109375	-43.945312
4631.729034	0.978033	387.109375	-43.945312
4631.731034	1.087327	387.109375	-43.945312
4631.733033	1.084137	11.925507	0.191348
4632.753604	0.456820	90.625000	400.488281
4632.755606	0.760146	90.625000	400.488281
4632.757604	1.029528	90.625000	400.488281
4632.759606	1.086867	90.625000	400.488281
4632.761607	1.083902	11.922919	0.187750
4633.804188	0.833336	383.007812	-44.140625
4633.806188	1.065662	383.007812	-44.140625
4633.810187	1.083085	383.007812	-44.140625
4633.812188	1.081358	11.894941	0.187350
4634.830714	0.283536	87.500000	410.644531
4634.832719	0.593607	87.500000	410.644531
4634.836716	1.082097	87.500000	410.644531
4634.838717	1.085574	87.500000	410.644531
4634.840717	1.083186	11.915049	0.189021
4635.876775	0.452127	382.812500	-44.238281
4635.878778	0.755611	382.812500	-44.238281
4635.880776	1.026571	382.812500	-44.238281
4635.882777	1.086526	382.812500	-44.238281
4635.884777	1.083479	11.918267	0.192258
4636.907325	0.356381	88.574219	409.472656
4636.909328	0.663433	88.574219	409.472656
4636.911328	0.956380	88.574219	409.472656
4636.913328	1.086736	88.574219	409.472656
4636.915328	1.084024	11.924266	0.189801
4637.951364	0.367827	379.101562	-44.726562
4637.955365	0.965927	379.101562	-44.726562
4637.957366	1.087190	379.101562	-44.726562
4637.959368	1.084277	11.927049	0.187992
4638.985452	0.423097	92.382812	398.535156
4638.987456	0.727661	92.382812	398.535156
4638.989455	1.007814	92.382812	398.535156
4638.991455	1.086979	92.382812	398.535156
4638.993454	1.083686	11.920545	0.185825
4640.027517	0.445814	380.078125	-45.312500
4640.029518	0.749411	380.078125	-45.312500
4640.031519	1.022509	380.078125	-45.312500
4640.033519	1.086367	380.078125	-45.312500
4640.035518	1.083263	11.915891	0.181342
4641.064488	0.471191	87.402344	412.890625
4641.066491	0.774035	87.402344	412.890625
4641.068490	1.037501	87.402344	412.890625
4641.070489	1.086058	87.402344	412.890625
4641.072489	1.083189	11.915085	0.184686
4642.100536	0.355569	377.246094	-45.019531
4642.102538	0.662677	377.246094	-45.019531
4642.104539	0.955647	377.246094	-45.019531
4642.106537	1.087030	377.246094	-45.019531
4642.108537	1.087083	11.957908	0.192955
4643.143119	0.614025	91.210937	400.488281
4643.147124	1.085296	91.210937	400.488281
4643.149124	1.085568	91.210937	400.488281
4643.151125	1.083314	11.916458	0.539131
4644.177148	0.503985	367.578125	-44.140625
4644.179149	0.805555	367.578125	-44.140625
4644.181150	1.053681	367.578125	-44.140625
4644.183150	1.085509	367.578125	-44.140625
4644.185149	1.082813	11.910946	0.179075
4645.221239	0.522219	89.843750	401.660156
4645.223240	0.823156	89.843750	401.660156
4645.225239	1.061341	89.843750	401.660156
4645.227237	1.085511	89.843750	401.660156
4645.229238	1.082894	11.911833	0.179507
4646.250242	1.770278	375.976562	-44.433594
4646.252244	0.730786	375.976562	-44.433594
4646.254244	1.010014	375.976562	-44.433594
4646.256243	1.086678	375.976562	-44.433594
4646.258243	1.083521	11.918727	0.184978
4647.298770	0.497662	90.136719	399.609375
4647.300770	0.799486	90.136719	399.609375
4647.304768	1.085913	90.136719	399.609375
4647.306771	1.083203	90.136719	399.609375
4647.308769	1.081362	11.894977	0.176825
4648.327727	0.706381	377.246094	-43.164062
4648.329728	0.992520	377.246094	-43.164062
4648.331730	1.090260	377.246094	-43.164062
4648.333728	1.086766	11.954425	0.183964
4649.376293	0.781219	90.039062	400.195312
4649.378294	1.041512	90.039062	400.195312
4649.380293	1.085992	90.039062	400.195312
4649.382294	1.083107	11.914171	0.183175
4650.402871	0.395749	373.437500	-42.382812
4650.404873	0.701179	373.437500	-42.382812
4650.406874	0.988261	373.437500	-42.382812
4650.408874	1.089421	373.437500	-42.382812
4650.410872	1.086084	11.946927	0.181113
4651.450904	0.625131	91.503906	396.093750
4651.452905	0.921262	91.503906	396.093750
4651.454907	1.085005	91.503906	396.093750
4651.456905	1.084294	11.927235	0.602832
4652.478946	0.538238	364.648437	-41.210937
4652.480949	0.838655	364.648437	-41.210937
4652.482947	1.067051	364.648437	-41.210937
4652.484948	1.084992	364.648437	-41.210937
4652.486949	1.082489	11.907375	0.190541
4653.527028	0.541268	89.746094	402.539062
4653.529029	0.841576	89.746094	402.539062
4653.531029	1.067902	89.746094	402.539062
4653.533027	1.084648	89.746094	402.539062
4653.537027	1.080378	11.884156	0.187878
4654.557620	0.838533	366.503906	-40.625000
4654.559621	1.067093	366.503906	-40.625000
4654.561623	1.085123	366.503906	-40.625000
4654.563621	1.082539	11.907932	0.182641
4655.603711	0.609433	89.941406	402.734375
4655.605713	1.038759	89.941406	402.734375
4655.607712	1.086391	89.941406	402.734375
4655.609712	1.083571	11.919276	0.178706
4656.632262	0.456977	373.339844	-40.625000
4656.634264	0.760290	373.339844	-40.625000
4656.636262	1.029520	373.339844	-40.625000
4656.638263	1.086859	373.339844	-40.625000
4656.640264	1.083789	11.921679	0.184146
4657.678293	0.533923	86.425781	412.304687
4657.680296	0.834579	86.425781	412.304687
4657.682295	0.843293	86.425781	412.304687
4657.684295	1.085583	86.425781	412.304687
4657.686297	1.085466	11.940121	0.177959
4658.710322	0.667250	368.847656	-39.941406
4658.712324	0.959718	368.847656	-39.941406
4658.714325	1.087493	368.847656	-39.941406
4658.716325	1.084742	11.932163	0.183342
4659.754376	0.524519	87.207031	411.132812
4659.756379	0.825498	87.207031	411.132812
4659.760377	1.085493	87.207031	411.132812
4659.762378	1.082926	87.207031	411.132812
4659.764380	1.081128	11.892406	0.177691
4660.788463	0.883688	387.695312	-41.601562
4660.790466	1.079682	387.695312	-41.601562
4660.792466	1.084627	387.695312	-41.601562
4660.794466	1.082216	11.904379	0.403461
4661.831048	0.680937	88.378906	406.152344
4661.833050	0.971476	88.378906	406.152344
4661.835051	1.087835	88.378906	406.152344
4661.839049	1.082754	11.910290	0.176929
4662.863614	0.580437	382.226562	-41.015625
4662.865618	0.879019	382.226562	-41.015625
4662.867618	1.078596	382.226562	-41.015625
4662.869619	1.084469	382.226562	-41.015625
4662.871617	1.081987	11.901854	0.181871
4663.905688	0.527392	84.472656	417.675781
4663.907691	0.828142	84.472656	417.675781
4663.909692	1.063783	84.472656	417.675781
4663.911693	1.085966	84.472656	417.675781
4663.917693	1.080362	11.883986	0.182581
4664.937758	0.507812	388.281250	-40.722656
4664.939759	0.809316	388.281250	-40.722656
4664.941763	1.055336	388.281250	-40.722656
4664.943765	1.085463	388.281250	-40.722656
4664.945765	1.082797	11.910769	0.184931
4665.980330	0.289310	87.109375	411.328125
4665.982332	0.599075	87.109375	411.328125
4665.984331	0.896623	87.109375	411.328125
4665.986332	1.082467	87.109375	411.328125
4665.988330	1.084892	87.109375	411.328125
4665.990330	1.082559	11.908154	0.180254
4667.014386	0.423635	393.359375	-41.113281
4667.016388	0.728096	393.359375	-41.113281
4667.018388	1.008052	393.359375	-41.113281
4667.020390	1.086583	393.359375	-41.113281
4667.022392	1.083421	11.917628	0.178729
4668.060384	0.730834	90.429687	402.343750
4668.062385	1.009893	90.429687	402.343750
4668.064385	1.086513	90.429687	402.343750
4668.066386	1.083323	11.916548	0.173759
4669.089338	0.314637	375.292969	-40.136719
4669.091339	0.623400	375.292969	-40.136719
4669.093339	0.919628	375.292969	-40.136719
4669.095339	1.085263	375.292969	-40.136719
4669.097341	1.084739	11.932127	0.181369
4670.135399	0.479887	86.425781	414.257812
4670.137401	0.782421	86.425781	414.257812
4670.139401	1.042004	86.425781	414.257812
4670.143401	1.082951	86.425781	414.257812
4670.145401	1.081151	11.892664	0.175363
4671.165452	0.465425	374.023437	-39.746094
4671.167453	0.768371	374.023437	-39.746094
4671.169461	1.034411	374.023437	-39.746094
4671.173461	1.083825	374.023437	-39.746094
4671.175463	1.081884	11.900719	0.184381
4672.213555	0.396707	91.503906	400.097656
4672.215558	0.925814	91.503906	400.097656
4672.217558	1.086285	91.503906	400.097656
4672.219558	1.085060	11.935655	0.175754
4673.241584	0.541459	373.730469	-39.941406
4673.243585	0.841817	373.730469	-39.941406
4673.245585	1.068282	373.730469	-39.941406
4673.247586	1.085173	373.730469	-39.941406
4673.249584	1.082639	11.909031	0.194359
4674.287617	0.306579	90.917969	401.757812
4674.289618	0.615611	90.917969	401.757812
4674.291625	0.912240	90.917969	401.757812
4674.293626	1.084654	90.917969	401.757812
4674.295627	1.084749	11.932234	0.179210
4675.315652	0.294586	371.582031	-40.039062
4675.317653	0.604076	371.582031	-40.039062
4675.319653	0.901285	371.582031	-40.039062
4675.321654	1.083064	371.582031	-40.039062
4675.323654	1.084737	371.582031	-40.039062
4675.325653	1.084627	11.930895	0.182839
4676.367699	0.899493	88.085937	408.886719
4676.369703	1.083125	88.085937	408.886719
4676.371701	1.085099	88.085937	408.886719
4676.373702	1.082775	11.910521	0.486770
4677.392303	0.374305	372.363281	-40.429687
4677.394303	0.680594	372.363281	-40.429687
4677.396304	0.971296	372.363281	-40.429687
4677.398304	1.088257	372.363281	-40.429687
4677.400304	1.085138	11.936514	0.178520
4678.440356	0.290211	86.914062	411.523437
4678.442358	0.599997	86.914062	411.523437
4678.446359	1.082459	86.914062	411.523437
4678.448360	1.084664	86.914062	411.523437
4678.450359	1.082330	11.905628	0.178666
4679.470385	0.512160	377.050781	-41.894531
4679.476390	1.085685	377.050781	-41.894531
4679.478392	1.083007	377.050781	-41.894531
4679.480393	1.081208	11.893293	0.173264
4680.517351	0.498185	83.593750	420.410156
4680.519353	0.799999	83.593750	420.410156
4680.521352	1.051191	83.593750	420.410156
4680.523352	1.085892	83.593750	420.410156
4680.525354	1.083127	11.914393	0.180398
4681.547390	0.323612	360.742187	-41.015625
4681.549392	0.631935	360.742187	-41.015625
4681.553390	1.086350	360.742187	-41.015625
4681.555392	1.085000	360.742187	-41.015625
4681.559391	1.081303	11.894329	0.171503
4682.595423	0.861907	87.500000	410.839844
4682.597425	1.074381	87.500000	410.839844
4682.599425	1.084722	87.500000	410.839844
4682.601425	1.082298	11.905274	0.289803
4683.623934	0.385082	359.277344	-41.894531
4683.625936	0.690998	359.277344	-41.894531
4683.627935	0.979892	359.277344	-41.894531
4683.629936	1.087823	359.277344	-41.894531
4683.631936	1.084635	11.930984	0.175518
4684.665978	0.324323	86.816406	412.207031
4684.667979	0.632470	86.816406	412.207031
4684.669980	0.928129	86.816406	412.207031
4684.671982	1.085805	86.816406	412.207031
4684.673982	1.084526	11.929788	0.179413
4685.702020	0.365568	379.980469	-43.847656
4685.704022	0.672146	379.980469	-43.847656
4685.706023	0.964125	379.980469	-43.847656
4685.708022	1.087758	379.980469	-43.847656
4685.710021	1.084760	11.932358	0.180273
4686.742039	0.544415	83.984375	422.265625
4686.744038	0.844650	83.984375	422.265625
4686.746039	1.069316	83.984375	422.265625
4686.748044	1.085085	83.984375	422.265625
4686.750049	1.082547	11.908012	0.207907
4687.782085	0.650649	356.835937	-41.308594
4687.784087	0.944917	356.835937	-41.308594
4687.786086	1.087635	356.835937	-41.308594
4687.788086	1.085305	11.938357	0.171168
4688.816139	0.545322	89.062500	407.812500
4688.818140	0.845468	89.062500	407.812500
4688.820141	1.071236	89.062500	407.812500
4688.822140	1.087602	89.062500	407.812500
4688.824141	1.085001	11.935017	0.208440
4689.858178	0.641562	380.957031	-42.578125
4689.860180	0.936588	380.957031	-42.578125
4689.862180	1.086349	380.957031	-42.578125
4689.864182	1.084512	11.929637	0.178857
4690.890722	0.301398	83.398437	423.632812
4690.892724	0.610655	83.398437	423.632812
4690.894739	0.907547	83.398437	423.632812
4690.896741	1.084404	83.398437	423.632812
4690.898741	1.084864	83.398437	423.632812
4690.902740	1.080952	11.890474	0.173818
4691.934853	0.406828	380.761719	-42.285156
4691.936854	0.711858	380.761719	-42.285156
4691.938855	0.996237	380.761719	-42.285156
4691.940854	1.087638	380.761719	-42.285156
4691.942854	1.084395	11.928343	0.172732
4692.965808	0.373787	83.300781	422.949219
4692.969808	0.970689	83.300781	422.949219
4692.971810	1.086344	83.300781	422.949219
4692.973810	1.083466	11.918125	0.173652
4694.011860	0.537334	378.808594	-41.992187
4694.013862	0.837763	378.808594	-41.992187
4694.015863	1.066903	378.808594	-41.992187
4694.017863	1.085193	378.808594	-41.992187
4694.019862	1.082643	11.909076	0.179992
4695.044447	0.825949	87.011719	411.132812
4695.046448	1.062561	87.011719	411.132812
4695.048449	1.085383	87.011719	411.132812
4695.050449	1.085305	11.938357	0.167369
4696.089419	0.671938	378.808594	-41.601562
4696.091420	0.963857	378.808594	-41.601562
4696.093420	1.087483	378.808594	-41.601562
4696.095420	1.084590	11.930489	0.176622
4697.117484	0.353699	84.277344	419.921875
4697.119486	0.365438	84.277344	419.921875
4697.121488	0.953970	84.277344	419.921875
4697.123487	1.087232	84.277344	419.921875
4697.125486	1.084613	11.930745	0.173815
4698.165530	0.587510	386.914062	-41.796875
4698.167532	0.885643	386.914062	-41.796875
4698.169533	1.079926	386.914062	-41.796875
4698.171533	1.084421	386.914062	-41.796875
4698.173532	1.081959	11.901544	0.173828
4699.194495	0.483874	86.328125	413.867187
4699.198497	1.043982	86.328125	413.867187
4699.200499	1.085747	86.328125	413.867187
4699.202498	1.085620	11.941823	0.167955
4700.239030	0.249239	375.195312	-40.332031
4700.241030	0.560640	375.195312	-40.332031
4700.243030	0.860224	375.195312	-40.332031
4700.245030	1.074032	375.195312	-40.332031
4700.247030	1.084952	375.195312	-40.332031
4700.249030	1.084835	11.933182	0.179886
4701.271087	0.626386	81.250000	428.222656
4701.273087	0.922491	81.250000	428.222656
4701.275087	1.086006	81.250000	428.222656
4701.277088	1.085157	11.936726	0.172467
4702.317148	0.476560	387.988281	-41.503906
4702.319152	0.779053	387.988281	-41.503906
4702.321151	1.040323	387.988281	-41.503906
4702.323151	1.085957	387.988281	-41.503906
4702.325151	1.083136	11.914499	0.175096
4703.347171	0.536845	87.988281	409.472656
4703.349172	0.837300	87.988281	409.472656
4703.351174	1.066429	87.988281	409.472656
4703.353174	1.084877	87.988281	409.472656
4703.355172	1.082302	11.905327	0.166415
4704.393207	0.463159	384.472656	-41.601562
4704.395208	0.766218	384.472656	-41.601562
4704.397210	1.033065	384.472656	-41.601562
4704.399209	1.086744	384.472656	-41.601562
4704.401212	1.083788	11.921670	0.168262
4705.422162	0.358020	81.835937	426.464844
4705.424164	0.664886	81.835937	426.464844
4705.426166	0.957616	81.835937	426.464844
4705.428167	1.087372	81.835937	426.464844
4705.430165	1.084676	11.931437	0.172314
4706.468229	0.523292	382.128906	-41.992187
4706.470231	0.535794	382.128906	-41.992187
4706.472230	1.061800	382.128906	-41.992187
4706.474231	1.085313	382.128906	-41.992187
4706.476230	1.082715	11.909865	0.173304
4707.501178	0.559717	81.640625	426.953125
4707.503180	0.859358	81.640625	426.953125
4707.505180	1.073971	81.640625	426.953125
4707.507179	1.085120	81.640625	426.953125
4707.511177	1.080902	11.889924	0.275106
4708.543230	0.262549	370.898437	-41.503906
4708.545228	0.573242	370.898437	-41.503906
4708.547229	0.872255	370.898437	-41.503906
4708.549230	1.077060	370.898437	-41.503906
4708.551228	1.084609	370.898437	-41.503906
4708.553229	1.082093	11.903023	0.173594
4709.577261	0.470762	80.761719	430.273437
4709.579261	0.773443	80.761719	430.273437
4709.581261	1.036940	80.761719	430.273437
4709.583261	1.085760	80.761719	430.273437
4709.585262	1.082856	11.911417	0.174818
4710.619314	0.570006	361.523437	-41.015625
4710.621316	0.869205	361.523437	-41.015625
4710.623316	1.076435	361.523437	-41.015625
4710.625316	1.084808	361.523437	-41.015625
4710.627315	1.082354	11.905895	0.178854
4711.653341	2.092027	82.910156	424.804687
4711.655343	0.608862	82.910156	424.804687
4711.657373	0.905881	82.910156	424.804687
4711.659376	1.084877	82.910156	424.804687
4711.661377	1.085317	82.910156	424.804687
4711.663375	1.083064	11.913702	0.172703
4712.693454	0.338252	379.980469	-42.480469
4712.695456	0.645953	379.980469	-42.480469
4712.697456	0.940577	379.980469	-42.480469
4712.699457	1.086850	379.980469	-42.480469
4712.701462	1.084768	11.932446	0.169296
4713.733450	0.593329	85.839844	415.917969
4713.735450	0.891170	85.839844	415.917969
4713.737451	1.081937	85.839844	415.917969
4713.739453	1.085524	85.839844	415.917969
4713.741450	1.083250	11.915750	0.429949
4714.768472	0.399205	363.671875	-41.503906
4714.770473	0.704386	363.671875	-41.503906
4714.772475	0.990728	363.671875	-41.503906
4714.774475	1.088969	363.671875	-41.503906
4714.776475	1.085504	11.940546	0.169760
4715.805983	1.842975	81.250000	427.343750
4715.811228	0.683482	81.250000	427.343750
4715.813231	0.973669	81.250000	427.343750
4715.815228	1.088123	81.250000	427.343750
4715.817234	1.085032	11.935353	0.176103
4716.843305	0.508862	379.394531	-42.187500
4716.845310	0.810240	379.394531	-42.187500
4716.847311	1.056219	379.394531	-42.187500
4716.849310	1.085698	379.394531	-42.187500
4716.851310	1.083047	11.913516	0.173144
4717.887368	0.680914	85.644531	412.695312
4717.889369	0.971392	85.644531	412.695312
4717.891370	1.087262	85.644531	412.695312
4717.893370	1.084207	11.926277	0.173643
4718.917920	0.269005	356.933594	-40.136719
4718.919921	0.579368	356.933594	-40.136719
4718.921922	0.878631	356.933594	-40.136719
4718.923922	1.078811	356.933594	-40.136719
4718.925924	1.084895	356.933594	-40.136719
4718.927922	1.082503	11.907534	0.166232
4719.963997	0.361063	85.351562	414.160156
4719.965998	0.667883	85.351562	414.160156
4719.967997	0.960325	85.351562	414.160156
4719.970000	1.088376	85.351562	414.160156
4719.971997	1.085392	11.939315	0.169395
4720.996586	0.884782	383.886719	-41.210937
4720.998588	1.079772	383.886719	-41.210937
4721.000586	1.084442	383.886719	-41.210937
4721.002586	1.084362	11.927979	0.170874
4722.040688	0.364148	83.496094	419.921875
4722.042692	0.670729	83.496094	419.921875
4722.044690	0.962769	83.496094	419.921875
4722.046692	1.087437	83.496094	419.921875
4722.048693	1.084627	11.930895	0.169249
4723.070749	0.665367	371.582031	-40.039062
4723.072750	0.958009	371.582031	-40.039062
4723.074753	1.086942	371.582031	-40.039062
4723.076749	1.084193	11.926126	0.167725
4724.119333	0.665756	80.566406	428.613281
4724.121333	0.958386	80.566406	428.613281
4724.125333	1.084480	80.566406	428.613281
4724.127335	1.082481	11.907295	0.775607
4725.145365	0.429944	366.015625	-38.964844
4725.147367	0.734149	366.015625	-38.964844
4725.151366	1.086488	366.015625	-38.964844
4725.153368	1.083276	366.015625	-38.964844
4725.157367	1.079940	11.879343	0.165250
4726.193396	0.424471	83.007812	422.949219
4726.195397	0.728820	83.007812	422.949219
4726.197400	1.008417	83.007812	422.949219
4726.201396	1.083108	83.007812	422.949219
4726.203399	1.081029	11.891315	0.170573
4727.221464	0.420564	368.652344	-38.281250
4727.223466	0.725070	368.652344	-38.281250
4727.225467	1.005962	368.652344	-38.281250
4727.227465	1.087540	368.652344	-38.281250
4727.229467	1.084330	11.927633	0.168856
4728.269540	0.422172	86.035156	415.429687
4728.271541	0.726567	86.035156	415.429687
4728.273542	1.006962	86.035156	415.429687
4728.275540	1.086627	86.035156	415.429687
4728.277540	1.086544	11.951979	0.167035
4729.297599	0.336395	386.914062	-38.867187
4729.299602	0.644102	386.914062	-38.867187
4729.301600	0.938913	386.914062	-38.867187
4729.303601	1.087066	386.914062	-38.867187
4729.305600	1.084995	11.934945	0.166800
4730.345650	0.414375	85.058594	419.042969
4730.347652	0.719011	85.058594	419.042969
4730.349652	1.001577	85.058594	419.042969
4730.351652	1.087469	85.058594	419.042969
4730.353652	1.084254	11.926792	0.165060
4731.375712	0.557382	384.375000	-38.671875
4731.377713	0.857103	384.375000	-38.671875
4731.379713	1.073080	384.375000	-38.671875
4731.383711	1.082330	384.375000	-38.671875
4731.385713	1.080581	11.886389	0.263884
4732.424664	0.919418	86.523437	414.257812
4732.426667	1.084487	86.523437	414.257812
4732.428666	1.083891	11.922804	0.168438
4733.451223	0.378724	362.207031	-37.402344
4733.453224	0.684816	362.207031	-37.402344
4733.455225	0.974684	362.207031	-37.402344
4733.457226	1.087472	362.207031	-37.402344
4733.459225	1.084333	11.927661	0.163077
4734.499270	0.842920	86.328125	412.597656
4734.501271	1.068464	86.328125	412.597656
4734.503278	1.084831	86.328125	412.597656
4734.505274	1.082229	11.904520	0.168183
4735.527833	0.527017	361.523437	-37.500000
4735.529835	0.827800	361.523437	-37.500000
4735.531835	1.062988	361.523437	-37.500000
4735.533837	1.084981	361.523437	-37.500000
4735.535834	1.082332	11.905647	0.169072
4736.573867	0.530043	84.570312	416.992187
4736.575869	0.830686	84.570312	416.992187
4736.577871	1.064263	84.570312	416.992187
4736.579872	1.085163	84.570312	416.992187
4736.581875	1.082556	11.908119	0.163499
4737.602434	0.367120	372.949219	-38.671875
4737.604436	0.673600	372.949219	-38.671875
4737.606436	0.965166	372.949219	-38.671875
4737.608434	1.087586	372.949219	-38.671875
4737.610435	1.084674	11.931409	0.167795
4738.650536	0.530997	85.253906	414.746094
4738.652537	0.831616	85.253906	414.746094
4738.654539	1.064608	85.253906	414.746094
4738.656537	1.085176	85.253906	414.746094
4738.658537	1.082605	11.908660	0.168279
4739.681108	0.673443	357.519531	-37.988281
4739.683107	0.965022	357.519531	-37.988281
4739.685110	1.087074	357.519531	-37.988281
4739.687109	1.084289	11.927182	0.162050
4740.729199	0.903718	79.296875	430.761719
4740.731202	1.084179	79.296875	430.761719
4740.733202	1.085596	79.296875	430.761719
4740.737202	1.081770	11.899469	0.486283
4741.755220	0.440055	362.695312	-37.890625
4741.757223	0.743869	362.695312	-37.890625
4741.759223	1.018924	362.695312	-37.890625
4741.763224	1.083401	362.695312	-37.890625
4741.765225	1.081408	11.895491	0.163968
4742.803292	0.596979	85.156250	415.527344
4742.805293	0.632003	85.156250	415.527344
4742.807294	1.081910	85.156250	415.527344
4742.809295	1.084763	85.156250	415.527344
4742.811294	1.082402	11.906418	0.446067
4743.834245	0.869251	375.585937	-38.671875
4743.836246	1.076487	375.585937	-38.671875
4743.838246	1.084920	375.585937	-38.671875
4743.840247	1.082427	11.906701	0.315373
4744.878811	0.419550	80.468750	427.636719
4744.880812	0.724073	80.468750	427.636719
4744.882811	1.005358	80.468750	427.636719
4744.884812	1.087375	80.468750	427.636719
4744.886811	1.084209	11.926296	0.169658
4745.908800	0.706794	355.078125	-37.695312
4745.910802	0.992341	355.078125	-37.695312
4745.914802	1.084233	355.078125	-37.695312
4745.916801	1.082305	11.905354	0.162226
4746.956870	0.630729	84.570312	414.257812
4746.958871	0.926396	84.570312	414.257812
4746.960870	1.085010	84.570312	414.257812
4746.962872	1.083903	11.922936	0.163855
4747.987457	0.635944	358.593750	-38.671875
4747.989458	1.084815	358.593750	-38.671875
4747.991461	1.083925	11.923177	0.160416
4749.031487	0.472732	79.296875	431.542969
4749.033492	0.775397	79.296875	431.542969
4749.035489	1.038228	79.296875	431.542969
4749.037489	1.086125	79.296875	431.542969
4749.039489	1.083285	11.916131	0.167151
4750.059585	0.314209	365.332031	-39.257812
4750.061587	0.622862	365.332031	-39.257812
4750.063588	0.918981	365.332031	-39.257812
4750.065588	1.084602	365.332031	-39.257812
4750.067589	1.084072	11.924789	0.160992
4751.107648	0.551912	84.277344	415.527344
4751.109648	0.851784	84.277344	415.527344
4751.111650	1.071661	84.277344	415.527344
4751.113649	1.085091	84.277344	415.527344
4751.115650	1.082546	11.908005	0.235603
4752.136638	0.452235	375.097656	-40.527344
4752.138638	0.755572	375.097656	-40.527344
4752.140639	1.026307	375.097656	-40.527344
4752.142638	1.086128	375.097656	-40.527344
4752.144637	1.083094	11.914030	0.166501
4753.181590	0.368810	82.910156	419.726562
4753.183592	0.675194	82.910156	419.726562
4753.185592	0.966564	82.910156	419.726562
4753.187594	1.087580	82.910156	419.726562
4753.189592	1.084562	11.930178	0.163572
4754.213684	0.433295	373.144531	-41.015625
4754.215686	0.737342	373.144531	-41.015625
4754.217688	1.014370	373.144531	-41.015625
4754.219693	1.086303	373.144531	-41.015625
4754.221692	1.083237	11.915607	0.160359
4755.256640	0.354731	81.542969	425.195312
4755.258644	0.661681	81.542969	425.195312
4755.260644	0.954726	81.542969	425.195312
4755.262642	1.086801	81.542969	425.195312
4755.264643	1.084172	11.925888	0.164710
4756.292726	0.715186	348.828125	-39.746094
4756.296726	1.087678	348.828125	-39.746094
4756.298726	1.084477	348.828125	-39.746094
4756.300727	1.082553	11.908083	0.163741
4757.332770	0.587004	84.472656	416.699219
4757.334773	0.885190	84.472656	416.699219
4757.336772	1.080331	84.472656	416.699219
4757.338771	1.084910	84.472656	416.699219
4757.340773	1.082462	11.907083	0.387021
4758.369721	0.530208	362.207031	-40.234375
4758.371724	0.830811	362.207031	-40.234375
4758.373723	1.064351	362.207031	-40.234375
4758.377721	1.082673	362.207031	-40.234375
4758.379722	1.080932	11.890252	0.159517
4759.407800	0.571113	78.613281	436.035156
4759.409802	0.870181	78.613281	436.035156
4759.411804	1.076295	78.613281	436.035156
4759.413810	1.084314	78.613281	436.035156
4759.415816	1.081874	11.900613	0.323517
4760.445866	0.289619	353.515625	-39.843750
4760.447868	0.599224	353.515625	-39.843750
4760.449869	0.896715	353.515625	-39.843750
4760.451869	1.083038	353.515625	-39.843750
4760.453869	1.085460	353.515625	-39.843750
4760.455868	1.083083	11.913915	0.167223
4761.483891	0.716121	82.324219	425.390625
4761.485893	0.999289	82.324219	425.390625
4761.487892	1.087035	82.324219	425.390625
4761.489892	1.083878	11.922663	0.158524
4762.524471	0.668094	371.972656	-39.843750
4762.526472	0.960422	371.972656	-39.843750
4762.528473	1.087701	371.972656	-39.843750
4762.530473	1.084889	11.933776	0.166737
4763.557068	0.495437	83.007812	424.316406
4763.559070	0.797232	83.007812	424.316406
4763.561069	1.049525	83.007812	424.316406
4763.563071	1.085444	83.007812	424.316406
4763.565070	1.082696	11.909660	0.160865
4764.599110	0.436207	381.738281	-40.039062
4764.601111	0.740087	381.738281	-40.039062
4764.603112	1.016149	381.738281	-40.039062
4764.605112	1.086117	381.738281	-40.039062
4764.607112	1.082983	11.912807	0.166999
4765.632083	0.476785	82.031250	427.050781
4765.634087	0.779242	82.031250	427.050781
4765.636087	1.040381	82.031250	427.050781
4765.640083	1.083017	82.031250	427.050781
4765.642084	1.081174	11.892912	0.161564
4766.678131	0.559767	366.503906	-38.964844
4766.680130	0.859378	366.503906	-38.964844
4766.682132	1.073696	366.503906	-38.964844
4766.684132	1.084808	366.503906	-38.964844
4766.686131	1.082266	11.904928	0.261732
4767.708238	0.397651	81.347656	428.808594
4767.710240	0.702939	81.347656	428.808594
4767.712241	0.989323	81.347656	428.808594
4767.714240	1.087594	81.347656	428.808594
4767.716241	1.084364	11.928006	0.159144
4768.754260	0.554358	380.761719	-39.453125
4768.756260	0.854231	380.761719	-39.453125
4768.758260	1.072593	380.761719	-39.453125
4768.760262	1.085458	380.761719	-39.453125
4768.762260	1.082976	11.912737	0.246974
4769.784296	0.381838	80.859375	430.566406
4769.786298	0.687729	80.859375	430.566406
4769.788297	0.977133	80.859375	430.566406
4769.790302	1.088077	80.859375	430.566406
4769.792307	1.084899	11.933891	0.158948
4770.830340	0.543897	356.152344	-37.597656
4770.832340	0.844070	356.152344	-37.597656
4770.834340	1.069165	356.152344	-37.597656
4770.836341	1.085284	356.152344	-37.597656
4770.838339	1.082770	11.910467	0.163152
4771.860404	0.452679	78.417969	436.621094
4771.864403	1.026629	78.417969	436.621094
4771.866403	1.086267	78.417969	436.621094
4771.868404	1.083297	11.916272	0.157873
4772.904465	0.307876	370.410156	-38.769531
4772.906465	0.616847	370.410156	-38.769531
4772.908466	0.913338	370.410156	-38.769531
4772.910466	1.084535	370.410156	-38.769531
4772.912465	1.084570	11.930275	0.165389
4773.936528	0.725910	78.222656	437.207031
4773.938531	0.751701	78.222656	437.207031
4773.940531	1.023840	78.222656	437.207031
4773.942533	1.086020	78.222656	437.207031
4773.948530	1.079683	11.876516	0.162170
4774.980628	0.389021	372.363281	-39.062500
4774.982629	0.694589	372.363281	-39.062500
4774.984629	0.982754	372.363281	-39.062500
4774.986629	1.087819	372.363281	-39.062500
4774.988629	1.084645	11.931099	0.164475
4776.012657	0.280794	81.542969	428.613281
4776.014659	0.590795	81.542969	428.613281
4776.018657	1.081386	81.542969	428.613281
4776.020659	1.085483	81.542969	428.613281
4776.022659	1.083185	11.915031	0.157662
4777.056684	0.373336	368.750000	-38.769531
4777.058686	0.679606	368.750000	-38.769531
4777.060686	0.970313	368.750000	-38.769531
4777.062685	1.087879	368.750000	-38.769531
4777.064686	1.084806	11.932863	0.159884
4778.090728	0.579350	83.300781	424.218750
4778.092730	0.877947	83.300781	424.218750
4778.094730	1.078629	83.300781	424.218750
4778.096732	1.084853	83.300781	424.218750
4778.098729	1.082389	11.906277	0.162119
4779.131248	0.282351	360.644531	-38.378906
4779.133248	0.592281	360.644531	-38.378906
4779.135248	0.890123	360.644531	-38.378906
4779.137247	1.080835	360.644531	-38.378906
4779.139249	1.084448	360.644531	-38.378906
4779.141248	1.081984	11.901827	0.164429
4780.167268	0.637761	79.003906	435.839844
4780.171268	1.085640	79.003906	435.839844
4780.173270	1.084093	79.003906	435.839844
4780.175269	1.084000	11.924000	0.162410
4781.209319	0.501285	359.472656	-38.964844
4781.213323	1.053059	359.472656	-38.964844
4781.215326	1.086314	359.472656	-38.964844
4781.217326	1.083607	11.919675	0.155555
4782.245378	0.622884	84.765625	419.140625
4782.247380	0.919101	84.765625	419.140625
4782.249381	1.085407	84.765625	419.140625
4782.251383	1.084841	11.933252	0.157992
