time (s)	coil I (A)	last det (V)	int current (uC)
1766.053253	0.624755	129.101562	158.105469
1766.055256	0.891796	129.101562	158.105469
1766.057253	1.091766	129.101562	158.105469
1766.059252	1.105701	129.101562	158.105469
1766.063252	1.101680	12.118484	0.277776
1767.139819	0.374804	105.566406	-149.121094
1767.141822	0.649091	105.566406	-149.121094
1767.143822	0.914887	105.566406	-149.121094
1767.145821	1.097612	105.566406	-149.121094
1767.147821	1.104565	105.566406	-149.121094
1767.149823	1.102120	12.123323	0.266067
1768.103887	0.353088	129.101562	159.765625
1768.105894	0.627800	129.101562	159.765625
1768.107897	0.895616	129.101562	159.765625
1768.109898	1.092180	129.101562	159.765625
1768.113897	1.102274	129.101562	159.765625
1768.115899	1.100486	12.105350	0.339286
1769.217989	0.684330	116.601562	-144.238281
1769.219996	0.948512	116.601562	-144.238281
1769.221995	1.104756	116.601562	-144.238281
1769.223995	1.105345	116.601562	-144.238281
1769.225993	1.103161	12.134772	0.303640
1770.184045	0.690548	126.171875	160.351562
1770.186047	0.954280	126.171875	160.351562
1770.188047	1.104624	126.171875	160.351562
1770.192046	1.102364	12.126007	0.259273
1771.290050	0.666732	117.578125	-136.914062
1771.292052	0.931769	117.578125	-136.914062
1771.294052	1.101459	117.578125	-136.914062
1771.296052	1.104716	117.578125	-136.914062
1771.298050	1.102420	12.126619	0.285830
1772.238089	0.233023	129.492187	153.027344
1772.240090	0.513158	129.492187	153.027344
1772.242090	0.784171	129.492187	153.027344
1772.244091	1.034333	129.492187	153.027344
1772.248091	1.103336	129.492187	153.027344
1772.250091	1.101363	12.114992	0.323264
1773.350104	0.600137	129.394531	-140.527344
1773.352105	0.868337	129.394531	-140.527344
1773.354104	0.874601	129.394531	-140.527344
1773.356105	1.105162	129.394531	-140.527344
1773.358105	1.102612	12.128728	0.331816
1774.322656	0.283142	126.367187	153.906250
1774.324660	0.559778	126.367187	153.906250
1774.326657	0.829693	126.367187	153.906250
1774.328658	1.063245	126.367187	153.906250
1774.330658	1.105420	126.367187	153.906250
1774.332657	1.102649	12.129136	0.275234
1775.412735	0.447268	106.640625	-141.601562
1775.414737	0.719629	106.640625	-141.601562
1775.416734	0.981582	106.640625	-141.601562
1775.418735	1.107294	106.640625	-141.601562
1775.420737	1.105134	12.156477	0.314453
1776.394774	0.729948	125.097656	158.789062
1776.396777	0.990720	125.097656	158.789062
1776.398778	1.107104	125.097656	158.789062
1776.400777	1.104666	12.151327	0.311079
1777.480819	1.800888	97.070312	-144.824219
1777.482821	0.510524	97.070312	-144.824219
1777.484822	0.781592	97.070312	-144.824219
1777.486820	1.032740	97.070312	-144.824219
1777.488820	1.107554	97.070312	-144.824219
1777.490821	1.104426	12.148686	0.289037
1778.466865	0.366279	125.000000	165.039062
1778.468865	0.640563	125.000000	165.039062
1778.470867	0.906706	125.000000	165.039062
1778.472868	1.095311	125.000000	165.039062
1778.474866	1.104463	125.000000	165.039062
1778.476867	1.101985	12.121834	0.278886
1779.552882	0.266838	106.738281	-145.312500
1779.554884	0.544166	106.738281	-145.312500
1779.556883	0.814686	106.738281	-145.312500
1779.558884	1.054742	106.738281	-145.312500
1779.560885	1.106282	106.738281	-145.312500
1779.562882	1.103387	12.137255	0.282960
1780.528967	0.581402	125.878906	165.527344
1780.530970	0.850336	125.878906	165.527344
1780.532970	1.074263	125.878906	165.527344
1780.534971	1.105581	125.878906	165.527344
1780.536969	1.102915	12.132070	0.320613
1781.633588	0.683011	103.906250	-138.964844
1781.635594	0.698325	103.906250	-138.964844
1781.637599	1.104042	103.906250	-138.964844
1781.639598	1.104650	103.906250	-138.964844
1781.641597	1.102503	12.127532	0.290058
1782.595686	0.228080	125.390625	166.015625
1782.597685	0.508544	125.390625	166.015625
1782.599685	0.779478	125.390625	166.015625
1782.601685	1.030871	125.390625	166.015625
1782.603685	1.106282	125.390625	166.015625
1782.605686	1.103258	12.135836	0.299132
1783.697695	0.557171	125.976562	-140.527344
1783.699696	0.827179	125.976562	-140.527344
1783.701697	1.061967	125.976562	-140.527344
1783.703698	1.105659	125.976562	-140.527344
1783.705696	1.102846	12.131308	0.677966
1784.660252	0.469090	122.656250	166.015625
1784.662255	0.740843	122.656250	166.015625
1784.664255	1.000120	122.656250	166.015625
1784.666255	1.106501	122.656250	166.015625
1784.668253	1.103915	12.143067	0.295043
1785.772323	0.293189	119.335937	-136.035156
1785.774326	0.569542	119.335937	-136.035156
1785.776325	0.839023	119.335937	-136.035156
1785.778326	1.068220	119.335937	-136.035156
1785.780325	1.105136	119.335937	-136.035156
1785.782326	1.102439	12.126832	0.281496
1786.734389	0.349872	120.703125	166.699219
1786.736391	0.624542	120.703125	166.699219
1786.738391	0.891400	120.703125	166.699219
1786.740392	1.090579	120.703125	166.699219
1786.742392	1.104478	120.703125	166.699219
1786.744392	1.102059	12.122649	0.290312
1787.842449	0.484994	130.761719	-135.644531
1787.844450	0.756380	130.761719	-135.644531
1787.846450	1.013270	130.761719	-135.644531
1787.848451	1.107498	130.761719	-135.644531
1787.850451	1.104520	12.149723	0.291485
1788.797000	0.366150	120.605469	165.527344
1788.799000	0.640417	120.605469	165.527344
1788.802999	1.094955	120.605469	165.527344
1788.805000	1.104136	120.605469	165.527344
1788.807000	1.101739	12.119131	0.302049
1789.909088	0.425250	125.683594	-133.886719
1789.911089	0.697981	125.683594	-133.886719
1789.913090	0.961377	125.683594	-133.886719
1789.915091	1.104925	125.683594	-133.886719
1789.917088	1.104076	12.144831	0.317952
1790.873124	0.643775	121.386719	165.527344
1790.875127	0.909685	121.386719	165.527344
1790.877127	1.095996	121.386719	165.527344
1790.879127	1.104366	121.386719	165.527344
1790.881127	1.102013	12.122145	0.283703
1791.983164	0.751095	127.441406	-133.984375
1791.985165	1.008758	127.441406	-133.984375
1791.989163	1.103903	127.441406	-133.984375
1791.991165	1.101912	12.121027	0.263208
1792.945183	0.695721	122.167969	166.406250
1792.947184	0.959082	122.167969	166.406250
1792.949186	1.104836	122.167969	166.406250
1792.951185	1.104291	12.147198	0.287332
1794.047752	0.465474	127.148437	-133.398437
1794.049753	0.737194	127.148437	-133.398437
1794.051753	0.997039	127.148437	-133.398437
1794.053753	1.106254	127.148437	-133.398437
1794.055752	1.103645	12.140099	0.308506
1795.006295	0.224786	122.949219	167.187500
1795.008296	0.505370	122.949219	167.187500
1795.010297	0.776298	122.949219	167.187500
1795.012297	1.028404	122.949219	167.187500
1795.016296	1.103400	122.949219	167.187500
1795.018297	1.101495	12.116446	0.290560
1796.116842	0.408729	114.550781	-132.714844
1796.118844	0.681774	114.550781	-132.714844
1796.120846	0.945940	114.550781	-132.714844
1796.122850	1.103514	114.550781	-132.714844
1796.126847	1.102038	12.122418	0.293087
1797.082906	0.503003	118.652344	172.167969
1797.084907	0.774014	118.652344	172.167969
1797.086908	1.026710	118.652344	172.167969
1797.088908	1.106153	118.652344	172.167969
1797.090909	1.103129	12.134418	0.405646
1798.184931	0.299354	110.351562	-132.617187
1798.186934	0.575459	110.351562	-132.617187
1798.188932	0.844649	110.351562	-132.617187
1798.190934	1.071416	110.351562	-132.617187
1798.192933	1.105661	110.351562	-132.617187
1798.194933	1.103031	12.133346	0.289654
1799.152954	0.749566	121.484375	172.656250
1799.154956	1.007474	121.484375	172.656250
1799.156955	1.107036	121.484375	172.656250
1799.158955	1.104208	12.146285	0.301530
1800.249493	0.572355	106.347656	-136.425781
1800.251494	0.841657	106.347656	-136.425781
1800.253496	1.069514	106.347656	-136.425781
1800.257494	1.102267	106.347656	-136.425781
1800.259494	1.100384	12.104224	0.283336
1801.225549	0.315196	118.750000	175.000000
1801.227550	0.590806	118.750000	175.000000
1801.229551	0.859203	118.750000	175.000000
1801.231549	1.078066	118.750000	175.000000
1801.233550	1.104746	118.750000	175.000000
1801.235550	1.102140	12.123545	0.283961
1802.313592	0.497398	95.996094	-136.425781
1802.315594	0.768583	95.996094	-136.425781
1802.317595	1.022735	95.996094	-136.425781
1802.319596	1.107111	95.996094	-136.425781
1802.321595	1.104067	12.144734	0.390578
1803.299621	0.779851	122.753906	170.703125
1803.301622	1.030916	122.753906	170.703125
1803.303623	1.105735	122.753906	170.703125
1803.305621	1.102753	12.130280	0.445867
1804.382168	0.205582	87.011719	-132.812500
1804.384169	0.487718	87.011719	-132.812500
1804.386169	0.759009	87.011719	-132.812500
1804.388171	1.015215	87.011719	-132.812500
1804.390172	1.107065	87.011719	-132.812500
1804.392171	1.104154	12.145691	0.306774
1805.368212	0.432700	122.656250	165.820312
1805.370215	0.705142	122.656250	165.820312
1805.372214	0.967890	122.656250	165.820312
1805.374214	1.105229	122.656250	165.820312
1805.376214	1.103942	12.143360	0.280012
1806.456759	1.431259	97.265625	-127.539062
1806.458761	0.742880	97.265625	-127.539062
1806.460762	1.001936	97.265625	-127.539062
1806.462761	1.106982	97.265625	-127.539062
1806.464762	1.104229	12.146524	0.298213
1807.432782	0.405434	119.335937	165.332031
1807.434784	0.678511	119.335937	165.332031
1807.436799	0.942718	119.335937	165.332031
1807.438803	1.102828	119.335937	165.332031
1807.440802	1.103866	119.335937	165.332031
1807.442803	1.101581	12.117393	0.284016
1808.526835	0.320831	106.933594	-123.339844
1808.528837	0.596323	106.933594	-123.339844
1808.530835	0.864471	106.933594	-123.339844
1808.532836	1.080238	106.933594	-123.339844
1808.534837	1.104475	106.933594	-123.339844
1808.536836	1.101780	12.119583	0.296703
1809.498865	0.409889	120.117187	167.382812
1809.502869	0.946729	120.117187	167.382812
1809.504866	1.102797	120.117187	167.382812
1809.506866	1.103432	12.137750	0.261221
1810.602901	0.449320	107.910156	-122.558594
1810.604903	0.721370	107.910156	-122.558594
1810.606900	0.982967	107.910156	-122.558594
1810.608903	0.988895	107.910156	-122.558594
1810.610903	1.104572	12.150290	0.282672
1811.564944	0.449436	119.531250	173.144531
1811.566947	0.721404	119.531250	173.144531
1811.568947	0.982834	119.531250	173.144531
1811.570946	1.105780	119.531250	173.144531
1811.572948	1.103629	12.139921	0.288669
1812.669534	0.478140	111.621094	-127.539062
1812.671537	0.749587	111.621094	-127.539062
1812.673536	1.007459	111.621094	-127.539062
1812.675537	1.107028	111.621094	-127.539062
1812.677536	1.104146	12.145611	0.288979
1813.637567	0.255371	115.527344	179.003906
1813.639568	0.533307	115.527344	179.003906
1813.641567	0.803755	115.527344	179.003906
1813.643569	1.047294	115.527344	179.003906
1813.645570	1.105093	115.527344	179.003906
1813.647567	1.102019	12.122206	0.279389
1814.735615	0.483337	106.347656	-131.445312
1814.737618	0.754657	106.347656	-131.445312
1814.739618	1.011603	106.347656	-131.445312
1814.741618	1.106617	106.347656	-131.445312
1814.743617	1.103833	12.142164	0.287522
1815.712167	0.628457	119.238281	177.343750
1815.714170	0.894992	119.238281	177.343750
1815.716168	1.091783	119.238281	177.343750
1815.718168	1.104564	119.238281	177.343750
1815.720167	1.102053	12.122587	0.292073
1816.798780	0.471508	85.937500	-129.882812
1816.800783	0.743078	85.937500	-129.882812
1816.802782	1.002082	85.937500	-129.882812
1816.804781	1.107405	85.937500	-129.882812
1816.806781	1.107391	12.181299	0.292012
1817.788830	0.780477	113.964844	178.417969
1817.790831	1.031349	113.964844	178.417969
1817.792832	1.105686	113.964844	178.417969
1817.794832	1.102706	12.129766	0.425942
1818.866857	0.454147	86.328125	-127.539062
1818.868859	0.726049	86.328125	-127.539062
1818.870860	0.987107	86.328125	-127.539062
1818.872859	1.105950	86.328125	-127.539062
1818.874859	1.103599	12.139585	0.291540
1819.854915	0.543752	121.289062	168.652344
1819.856918	0.814021	121.289062	168.652344
1819.858918	1.053713	121.289062	168.652344
1819.862916	1.101966	121.289062	168.652344
1819.864917	1.099963	12.099598	0.277968
1820.936968	0.448798	111.132812	-126.660156
1820.938972	0.720838	111.132812	-126.660156
1820.940970	0.729509	111.132812	-126.660156
1820.942971	1.106592	111.132812	-126.660156
1820.944972	1.104546	12.150007	0.288238
1821.919020	0.328116	120.214844	167.578125
1821.921021	0.603305	120.214844	167.578125
1821.923022	0.871022	120.214844	167.578125
1821.925022	0.879396	120.214844	167.578125
1821.927022	1.104702	120.214844	167.578125
1821.929021	1.102191	12.124102	0.267477
1823.009564	0.363573	92.968750	-118.945312
1823.011568	0.637860	92.968750	-118.945312
1823.013567	0.903997	92.968750	-118.945312
1823.015567	1.094486	92.968750	-118.945312
1823.017569	1.104335	92.968750	-118.945312
1823.019566	1.101977	12.121746	0.301210
1823.985618	0.317156	116.210937	170.703125
1823.987620	0.592514	116.210937	170.703125
1823.989620	0.860755	116.210937	170.703125
1823.991621	1.078304	116.210937	170.703125
1823.993621	1.104162	116.210937	170.703125
1823.995622	1.101477	12.116250	0.270410
1825.081645	0.257312	114.648437	-120.019531
1825.083648	0.535227	114.648437	-120.019531
1825.085646	0.805677	114.648437	-120.019531
1825.087646	1.048678	114.648437	-120.019531
1825.089646	1.105401	114.648437	-120.019531
1825.091646	1.102401	12.126408	0.296226
1826.052167	0.527791	113.476562	173.339844
1826.056172	1.044254	113.476562	173.339844
1826.058173	1.105332	113.476562	173.339844
1826.060174	1.102414	12.126549	0.507422
1827.156218	0.725511	112.011719	-118.750000
1827.158221	0.986632	112.011719	-118.750000
1827.160220	0.990292	112.011719	-118.750000
1827.162219	1.104060	12.144663	0.283752
1828.118813	0.235000	114.843750	174.511719
1828.120814	0.514805	114.843750	174.511719
1828.122814	0.785430	114.843750	174.511719
1828.124814	1.034838	114.843750	174.511719
1828.126814	1.105338	114.843750	174.511719
1828.128815	1.102339	12.125724	0.270184
1829.224828	0.828522	101.269531	-115.917969
1829.226831	1.062553	101.269531	-115.917969
1829.228831	1.105312	101.269531	-115.917969
1829.230834	1.102484	12.127328	0.288451
1830.186908	0.251188	113.378906	176.367187
1830.188909	0.261883	113.378906	176.367187
1830.190909	0.800065	113.378906	176.367187
1830.192909	1.044969	113.378906	176.367187
1830.194909	1.105338	113.378906	176.367187
1830.196911	1.102280	12.125077	0.275694
1831.290931	0.236419	111.816406	-117.578125
1831.292934	0.516178	111.816406	-117.578125
1831.294932	0.786864	111.816406	-117.578125
1831.296932	1.036098	111.816406	-117.578125
1831.298934	1.105725	111.816406	-117.578125
1831.300933	1.102688	12.129570	0.291831
1832.259009	0.455095	113.574219	176.855469
1832.261010	0.726945	113.574219	176.855469
1832.263009	0.987820	113.574219	176.855469
1832.265009	1.106000	113.574219	176.855469
1832.267009	1.103711	12.140818	0.252318
1833.361061	0.433417	110.351562	-116.796875
1833.363063	0.705679	110.351562	-116.796875
1833.365065	0.968481	110.351562	-116.796875
1833.367065	0.973993	110.351562	-116.796875
1833.369064	1.104136	12.145496	0.279668
1834.331078	0.767985	115.332031	175.390625
1834.333081	1.022145	115.332031	175.390625
1834.335080	1.106657	115.332031	175.390625
1834.337080	1.103748	12.141225	0.354206
1835.427615	0.253073	107.910156	-116.015625
1835.429616	0.531410	107.910156	-116.015625
1835.431617	0.801909	107.910156	-116.015625
1835.433614	1.046206	107.910156	-116.015625
1835.435615	1.105333	107.910156	-116.015625
1835.437616	1.102333	12.125663	0.289894
1836.397679	0.301823	117.285156	173.046875
1836.399682	0.577593	117.285156	173.046875
1836.401681	0.846449	117.285156	173.046875
1836.403682	1.071539	117.285156	173.046875
1836.405682	1.104160	117.285156	173.046875
1836.407682	1.101319	12.114513	0.260308
1837.496218	0.380222	113.671875	-117.187500
1837.498220	0.653991	113.671875	-117.187500
1837.500226	0.919392	113.671875	-117.187500
1837.502229	1.098537	113.671875	-117.187500
1837.504233	1.104213	113.671875	-117.187500
1837.508230	1.100176	12.101938	0.281600
1838.470293	0.537112	118.554687	171.289062
1838.472296	0.807420	118.554687	171.289062
1838.474294	1.049744	118.554687	171.289062
1838.476294	1.105278	118.554687	171.289062
1838.478295	1.102258	12.124838	0.257009
1839.563281	0.571864	96.582031	-116.796875
1839.565284	0.841063	96.582031	-116.796875
1839.567284	1.069183	96.582031	-116.796875
1839.569283	1.104935	96.582031	-116.796875
1839.571285	1.102202	12.124217	0.291637
1840.543278	0.364928	116.796875	172.949219
1840.545281	0.639024	116.796875	172.949219
1840.547280	0.905029	116.796875	172.949219
1840.549280	1.094529	116.796875	172.949219
1840.551282	1.104024	116.796875	172.949219
1840.553280	1.101558	12.117136	0.260438
1841.626258	0.325013	80.273437	-117.382812
1841.628260	0.600320	80.273437	-117.382812
1841.630259	0.608898	80.273437	-117.382812
1841.632260	1.081947	80.273437	-117.382812
1841.634260	1.104619	80.273437	-117.382812
1841.636259	1.102053	12.122587	0.295590
1842.612353	0.376463	117.187500	175.292969
1842.614355	0.650208	117.187500	175.292969
1842.616355	0.915741	117.187500	175.292969
1842.618355	1.097004	117.187500	175.292969
1842.620354	1.103679	117.187500	175.292969
1842.622357	1.101208	12.113291	0.272605
1843.696377	0.689648	78.417969	-121.582031
1843.698378	0.953334	78.417969	-121.582031
1843.702377	1.103451	78.417969	-121.582031
1843.704379	1.101150	12.112652	0.277876
1844.684395	0.443852	111.523437	184.472656
1844.686396	0.715942	111.523437	184.472656
1844.688398	0.977931	111.523437	184.472656
1844.690398	1.105816	111.523437	184.472656
1844.692397	1.103885	12.142739	0.267968
1845.764471	0.227022	72.949219	-121.191406
1845.766473	0.507402	72.949219	-121.191406
1845.768473	0.778212	72.949219	-121.191406
1845.770473	1.029822	72.949219	-121.191406
1845.774472	1.103068	72.949219	-121.191406
1845.776475	1.101068	12.111748	0.276335
1846.750544	0.493443	112.402344	187.011719
1846.752546	0.764485	112.402344	187.011719
1846.754548	1.019366	112.402344	187.011719
1846.756546	1.106253	112.402344	187.011719
1846.758546	1.103251	12.135765	0.267232
1847.841130	0.565752	99.414062	-121.972656
1847.843131	0.835217	99.414062	-121.972656
1847.845132	1.065942	99.414062	-121.972656
1847.847130	1.104703	99.414062	-121.972656
1847.849129	1.101970	12.121675	0.264744
1848.814070	0.445121	107.226562	190.820312
1848.816070	0.717105	107.226562	190.820312
1848.820068	1.105951	107.226562	190.820312
1848.822072	1.104029	107.226562	190.820312
1848.824072	1.101934	12.121275	0.272396
1849.912084	0.360566	92.187500	-114.746094
1849.914084	0.634849	92.187500	-114.746094
1849.916084	0.901118	92.187500	-114.746094
1849.918085	1.093595	92.187500	-114.746094
1849.920084	1.104375	92.187500	-114.746094
1849.922084	1.101947	12.121418	0.278803
1850.878114	0.290837	112.597656	185.644531
1850.880114	0.566939	112.597656	185.644531
1850.882115	0.836166	112.597656	185.644531
1850.884115	1.066227	112.597656	185.644531
1850.886115	1.104148	112.597656	185.644531
1850.888115	1.101258	12.113840	0.266487
1851.982129	0.329959	106.738281	-113.476562
1851.984130	0.605005	106.738281	-113.476562
1851.986131	0.872614	106.738281	-113.476562
1851.988132	1.083505	106.738281	-113.476562
1851.990131	1.104250	106.738281	-113.476562
1851.992130	1.101591	12.117499	0.279903
1852.950195	0.489619	113.183594	182.324219
1852.952198	0.760655	113.183594	182.324219
1852.954197	1.016293	113.183594	182.324219
1852.956198	1.105963	113.183594	182.324219
1852.958203	1.103016	12.133178	0.316630
1854.049144	0.482169	112.890625	-111.816406
1854.051145	0.493491	112.890625	-111.816406
1854.053147	1.010623	112.890625	-111.816406
1854.055151	1.107119	112.890625	-111.816406
1854.057156	1.104160	12.145762	0.281067
1855.021696	0.516433	112.207031	179.882812
1855.023698	0.787055	112.207031	179.882812
1855.025699	1.035866	112.207031	179.882812
1855.027698	1.105007	112.207031	179.882812
1855.029699	1.101963	12.121594	0.449286
1856.113763	0.408552	97.656250	-111.132812
1856.115765	0.681464	97.656250	-111.132812
1856.119766	1.103166	97.656250	-111.132812
1856.121766	1.104178	97.656250	-111.132812
1856.123766	1.101889	12.120779	0.285344
1857.095808	0.286663	111.621094	180.468750
1857.097811	0.562847	111.621094	180.468750
1857.099810	0.832570	111.621094	180.468750
1857.101810	1.064357	111.621094	180.468750
1857.103810	1.104582	111.621094	180.468750
1857.105809	1.101750	12.119255	0.251639
1858.179873	0.381082	79.101562	-112.109375
1858.181875	0.654816	79.101562	-112.109375
1858.183875	0.920118	79.101562	-112.109375
1858.185878	1.098266	79.101562	-112.109375
1858.187875	1.103797	79.101562	-112.109375
1858.189877	1.101368	12.115045	0.288462
1859.165935	0.246695	111.230469	184.375000
1859.167936	0.525383	111.230469	184.375000
1859.169936	0.795864	111.230469	184.375000
1859.171936	1.042173	111.230469	184.375000
1859.173937	1.105425	111.230469	184.375000
1859.175937	1.102477	12.127249	0.258832
1860.245982	0.300241	86.621094	-116.308594
1860.247986	0.576171	86.621094	-116.308594
1860.249988	0.845620	86.621094	-116.308594
1860.251990	1.071473	86.621094	-116.308594
1860.253988	1.104777	86.621094	-116.308594
1860.255989	1.101987	12.121852	0.290582
1861.238564	0.781710	110.644531	190.136719
1861.240566	1.032351	110.644531	190.136719
1861.242567	1.106140	110.644531	190.136719
1861.244566	1.103133	12.134462	0.432088
1862.316634	0.582613	67.382812	-113.964844
1862.318636	0.851311	67.382812	-113.964844
1862.320636	1.074228	67.382812	-113.964844
1862.322636	1.104792	67.382812	-113.964844
1862.324635	1.102081	12.122888	0.270590
1863.304648	1.324340	109.863281	194.335937
1863.306651	0.626582	109.863281	194.335937
1863.308654	0.893149	109.863281	194.335937
1863.310653	1.091261	109.863281	194.335937
1863.312652	1.104253	109.863281	194.335937
1863.314654	1.101804	12.119841	0.256036
1864.384758	0.268177	77.441406	-114.941406
1864.386760	0.545124	77.441406	-114.941406
1864.388760	0.815321	77.441406	-114.941406
1864.392758	1.104781	77.441406	-114.941406
1864.394762	1.101966	77.441406	-114.941406
1864.396759	1.101895	12.120850	0.277423
1865.372763	0.720458	107.031250	197.070312
1865.374765	0.730635	107.031250	197.070312
1865.376765	1.105076	107.031250	197.070312
1865.378765	1.102978	12.132752	0.269429
1866.458833	0.668773	82.128906	-114.062500
1866.460835	0.933359	82.128906	-114.062500
1866.462834	1.101149	82.128906	-114.062500
1866.464835	1.104064	82.128906	-114.062500
1866.466835	1.101683	12.118510	0.272926
1867.440828	0.258305	106.054687	198.144531
1867.442829	0.536054	106.054687	198.144531
1867.444831	0.806403	106.054687	198.144531
1867.446830	1.049033	106.054687	198.144531
1867.448830	1.105291	106.054687	198.144531
1867.450830	1.102292	12.125210	0.259656
1868.528881	0.557332	75.683594	-111.816406
1868.530883	0.938023	75.683594	-111.816406
1868.532885	1.101534	75.683594	-111.816406
1868.534885	1.103626	75.683594	-111.816406
1868.536892	1.101286	12.114151	0.267742
1869.508970	0.638502	110.058594	195.703125
1869.510974	0.904534	110.058594	195.703125
1869.512973	1.094479	110.058594	195.703125
1869.514972	1.104194	110.058594	195.703125
1869.516973	1.101671	12.118386	0.261664
1870.600993	0.867621	85.253906	-112.500000
1870.602995	1.081312	85.253906	-112.500000
1870.604995	1.104064	85.253906	-112.500000
1870.606996	1.101421	12.115629	0.266137
1871.577043	0.544125	109.179687	196.386719
1871.579043	0.814232	109.179687	196.386719
1871.581044	1.053706	109.179687	196.386719
1871.583043	1.104613	109.179687	196.386719
1871.585044	1.101535	12.116888	0.592464
1872.667047	0.747716	97.558594	-114.355469
1872.669051	1.005855	97.558594	-114.355469
1872.671051	1.106563	97.558594	-114.355469
1872.673050	1.103802	12.141818	0.266946
1873.647609	0.586083	108.691406	197.167969
1873.649610	0.854536	108.691406	197.167969
1873.651610	1.075357	108.691406	197.167969
1873.653609	1.104000	108.691406	197.167969
1873.655610	1.101248	12.113725	0.252061
1874.732201	0.310520	93.066406	-114.355469
1874.734203	0.585957	93.066406	-114.355469
1874.736203	0.854504	93.066406	-114.355469
1874.738203	1.075340	93.066406	-114.355469
1874.740202	1.103982	93.066406	-114.355469
1874.742202	1.101178	12.112953	0.271438
1875.714208	0.486217	107.519531	198.339844
1875.716209	0.757310	107.519531	198.339844
1875.718210	1.013686	107.519531	198.339844
1875.720209	1.106858	107.519531	198.339844
1875.722208	1.103969	12.143661	0.306036
1876.800290	0.434304	70.410156	-111.914062
1876.802291	0.706640	70.410156	-111.914062
1876.804292	0.969263	70.410156	-111.914062
1876.806293	1.104482	70.410156	-111.914062
1876.808293	1.103038	12.133416	0.267768
1877.786395	0.380560	107.031250	197.753906
1877.788397	0.654145	107.031250	197.753906
1877.790398	0.919337	107.031250	197.753906
1877.792400	1.097881	107.031250	197.753906
1877.796397	1.101133	107.031250	197.753906
1877.798401	1.099563	12.095193	0.262556
1878.868482	0.429798	70.019531	-111.621094
1878.870486	0.702152	70.019531	-111.621094
1878.872483	0.965038	70.019531	-111.621094
1878.874483	1.104677	70.019531	-111.621094
1878.876483	1.103653	12.140188	0.266383
1879.858527	0.530191	110.156250	193.652344
1879.860530	0.800593	110.156250	193.652344
1879.862532	1.045139	110.156250	193.652344
1879.864531	1.104897	110.156250	193.652344
1879.866531	1.101806	12.119866	0.258348
1880.938616	0.551557	87.304687	-111.816406
1880.940621	0.821486	87.304687	-111.816406
1880.942620	1.058242	87.304687	-111.816406
1880.944619	1.104876	87.304687	-111.816406
1880.946619	1.101946	12.121408	0.266844
1881.926667	0.464881	107.226562	192.968750
1881.928670	0.736445	107.226562	192.968750
1881.930669	0.744902	107.226562	192.968750
1881.932668	1.106024	107.226562	192.968750
1881.936667	1.101357	12.114922	0.247372
1883.004728	0.366290	76.562500	-106.054687
1883.006729	0.640405	76.562500	-106.054687
1883.008731	0.906298	76.562500	-106.054687
1883.010729	1.094855	76.562500	-106.054687
1883.012729	1.103855	76.562500	-106.054687
1883.014730	1.101377	12.115151	0.275645
1883.994752	0.482293	109.472656	188.476562
1883.996754	0.753424	109.472656	188.476562
1883.998755	1.010484	109.472656	188.476562
1884.000754	1.106216	109.472656	188.476562
1884.002754	1.103421	12.137634	0.275017
1885.077369	0.393301	85.742187	-102.929687
1885.081371	0.931291	85.742187	-102.929687
1885.083372	1.100136	85.742187	-102.929687
1885.085372	1.103311	85.742187	-102.929687
1885.087373	1.100817	12.108992	0.273779
1886.057418	0.421005	106.542969	189.550781
1886.059418	0.693440	106.542969	189.550781
1886.061420	0.957343	106.542969	189.550781
1886.063420	1.104482	106.542969	189.550781
1886.065421	1.104173	12.145904	0.245236
1887.149496	0.312405	100.000000	-102.441406
1887.151499	0.587875	100.000000	-102.441406
1887.153498	0.856238	100.000000	-102.441406
1887.155497	1.076329	100.000000	-102.441406
1887.157498	1.104282	100.000000	-102.441406
1887.159498	1.101580	12.117384	0.276942
1888.123534	0.431966	105.078125	193.066406
1888.125534	0.704171	105.078125	193.066406
1888.127534	0.966883	105.078125	193.066406
1888.129536	1.104036	105.078125	193.066406
1888.131536	1.102758	12.130333	0.240837
1889.221591	0.459826	101.757812	-101.757812
1889.223591	0.731524	101.757812	-101.757812
1889.225590	0.991871	101.757812	-101.757812
1889.229588	1.103644	101.757812	-101.757812
1889.231591	1.101550	12.117048	0.272825
1890.195656	0.936632	107.031250	196.582031
1890.197658	1.101071	107.031250	196.582031
1890.199657	1.103163	107.031250	196.582031
1890.201658	1.100771	12.108478	0.238123
1891.294243	0.848299	94.726562	-102.441406
1891.296245	1.072623	94.726562	-102.441406
1891.298245	1.104508	94.726562	-102.441406
1891.300246	1.101799	12.119786	0.266668
1892.262266	0.496296	103.808594	202.441406
1892.264269	0.767142	103.808594	202.441406
1892.266268	1.021264	103.808594	202.441406
1892.270266	1.102886	103.808594	202.441406
1892.272267	1.100852	12.109373	0.339447
1893.360293	0.643968	102.050781	-106.445312
1893.362293	0.909649	102.050781	-106.445312
1893.364295	1.095725	102.050781	-106.445312
1893.366295	1.097015	102.050781	-106.445312
1893.368297	1.101485	12.116330	0.260068
1894.335234	0.760669	103.515625	204.199219
1894.337235	1.016358	103.515625	204.199219
1894.339237	1.106772	103.515625	204.199219
1894.341235	1.103828	12.142110	0.321096
1895.423817	0.457132	75.683594	-106.152344
1895.425818	0.728887	75.683594	-106.152344
1895.427819	0.989548	75.683594	-106.152344
1895.429818	1.105382	75.683594	-106.152344
1895.431820	1.102965	12.132619	0.257264
1896.403843	0.464611	105.175781	203.320312
1896.405845	0.736175	105.175781	203.320312
1896.407845	0.995904	105.175781	203.320312
1896.409846	1.106282	105.175781	203.320312
1896.411846	1.103700	12.140701	0.254024
1897.488443	0.331087	77.050781	-108.496094
1897.490445	0.605982	77.050781	-108.496094
1897.492445	0.873494	77.050781	-108.496094
1897.494444	1.083562	77.050781	-108.496094
1897.496445	1.103861	77.050781	-108.496094
1897.498446	1.101153	12.112679	0.259885
1898.474486	0.321571	104.492187	202.734375
1898.476488	0.596721	104.492187	202.734375
1898.478488	0.864581	104.492187	202.734375
1898.480487	1.079979	104.492187	202.734375
1898.482489	1.104047	104.492187	202.734375
1898.486486	1.099627	12.095893	0.254928
1899.556547	0.526475	64.257812	-106.054687
1899.558550	0.796935	64.257812	-106.054687
1899.560548	1.042748	64.257812	-106.054687
1899.562548	1.105198	64.257812	-106.054687
1899.564548	1.102167	12.123837	0.501411
1900.546570	0.325284	103.710937	201.367187
1900.548572	0.600408	103.710937	201.367187
1900.550580	0.868099	103.710937	201.367187
1900.552576	1.081885	103.710937	201.367187
1900.554576	1.104325	103.710937	201.367187
1900.556577	1.101669	12.118360	0.251260
1901.622596	0.296440	64.648437	-103.906250
1901.624598	0.572312	64.648437	-103.906250
1901.626599	0.841378	64.648437	-103.906250
1901.628598	1.068870	64.648437	-103.906250
1901.630598	1.104125	64.648437	-103.906250
1901.632599	1.101338	12.114717	0.270475
1902.616592	0.502808	107.519531	196.093750
1902.618595	0.773612	107.519531	196.093750
1902.620596	1.026044	107.519531	196.093750
1902.622594	1.105039	107.519531	196.093750
1902.624595	1.101963	12.121594	0.246822
1903.693104	0.330433	77.832031	-102.929687
1903.695107	0.605316	77.832031	-102.929687
1903.697106	0.872818	77.832031	-102.929687
1903.699107	1.083464	77.832031	-102.929687
1903.701105	1.104121	77.832031	-102.929687
1903.703105	1.101403	12.115436	0.264076
1904.685153	0.600602	106.250000	195.019531
1904.687154	0.868275	106.250000	195.019531
1904.691153	1.104030	106.250000	195.019531
1904.693155	1.101363	106.250000	195.019531
1904.695158	1.099596	12.095557	0.245173
1905.763716	0.287259	73.046875	-100.390625
1905.765718	0.563447	73.046875	-100.390625
1905.767717	0.832850	73.046875	-100.390625
1905.771716	1.104800	73.046875	-100.390625
1905.773719	1.101928	73.046875	-100.390625
1905.775719	1.100076	12.100840	0.268046
1906.749774	0.423397	104.687500	195.800781
1906.751775	0.695787	104.687500	195.800781
1906.753777	0.959031	104.687500	195.800781
1906.755777	0.965066	104.687500	195.800781
1906.757775	1.105999	12.165995	0.247988
1907.833796	0.525676	85.839844	-100.097656
1907.835798	0.796097	85.839844	-100.097656
1907.837798	1.042112	85.839844	-100.097656
1907.839799	1.104798	85.839844	-100.097656
1907.841799	1.101730	12.119034	0.505946
1908.816394	0.233035	104.003906	196.386719
1908.818396	0.512697	104.003906	196.386719
1908.820394	0.783269	104.003906	196.386719
1908.822394	1.033292	104.003906	196.386719
1908.824396	1.105578	104.003906	196.386719
1908.826395	1.102592	12.128516	0.247740
1909.900507	1.596679	74.707031	-98.046875
1909.902510	0.576062	74.707031	-98.046875
1909.906508	1.070727	74.707031	-98.046875
1909.908509	1.104128	74.707031	-98.046875
1909.910510	1.101232	12.113547	0.275740
1910.888569	0.517090	106.347656	194.726562
1910.890570	0.787589	106.347656	194.726562
1910.892572	1.036184	106.347656	194.726562
1910.894572	1.104988	106.347656	194.726562
1910.896569	1.101841	12.120256	0.240946
1911.969191	0.383642	82.519531	-98.730469
1911.971193	0.657200	82.519531	-98.730469
1911.973194	0.922191	82.519531	-98.730469
1911.975193	1.098822	82.519531	-98.730469
1911.977193	1.103867	82.519531	-98.730469
1911.979193	1.101552	12.117075	0.268552
1912.957262	0.335063	107.128906	195.019531
1912.959265	0.609834	107.128906	195.019531
1912.961265	0.877104	107.128906	195.019531
1912.963265	1.084671	107.128906	195.019531
1912.965266	1.103458	107.128906	195.019531
1912.967266	1.100756	12.108319	0.234878
1914.035849	0.306310	80.664062	-99.023437
1914.037851	0.581879	80.664062	-99.023437
1914.041851	1.073752	80.664062	-99.023437
1914.043851	1.104428	80.664062	-99.023437
1914.045853	1.101677	12.118447	0.271407
1915.025922	0.304607	106.835937	196.191406
1915.027921	0.580141	106.835937	196.191406
1915.029923	0.848776	106.835937	196.191406
1915.031922	1.072478	106.835937	196.191406
1915.033922	1.103802	106.835937	196.191406
1915.035920	1.100971	12.110684	0.247215
1916.108913	0.706500	90.625000	-101.757812
1916.110914	0.716860	90.625000	-101.757812
1916.112915	1.105298	90.625000	-101.757812
1916.114914	1.103910	12.143015	0.257443
1917.096877	0.435920	102.246094	201.074219
1917.098878	0.708042	102.246094	201.074219
1917.100881	0.970439	102.246094	201.074219
1917.102879	1.105055	102.246094	201.074219
1917.104880	1.103587	12.139452	0.248216
1918.174902	0.680770	65.039062	-100.000000
1918.176910	0.944725	65.039062	-100.000000
1918.178912	1.103018	65.039062	-100.000000
1918.180912	1.104046	65.039062	-100.000000
1918.184909	1.100144	12.101583	0.264473
1919.165005	0.242688	104.589844	202.832031
1919.167007	0.521576	104.589844	202.832031
1919.169007	0.791953	104.589844	202.832031
1919.171007	1.039168	104.589844	202.832031
1919.173006	1.104687	104.589844	202.832031
1919.175008	1.101611	12.117722	0.242814
1920.243585	0.552176	73.437500	-103.027344
1920.245588	0.821938	73.437500	-103.027344
1920.247588	1.058225	73.437500	-103.027344
1920.249587	1.104273	73.437500	-103.027344
1920.253587	1.099401	12.093412	0.262712
1921.234139	0.318688	103.125000	207.031250
1921.236142	0.593948	103.125000	207.031250
1921.238141	0.861876	103.125000	207.031250
1921.240141	1.078838	103.125000	207.031250
1921.244139	1.101523	103.125000	207.031250
1921.246141	1.099742	12.097161	0.243631
1922.314207	0.618195	57.617187	-100.781250
1922.316208	0.885084	57.617187	-100.781250
1922.318208	0.891379	57.617187	-100.781250
1922.320210	1.103813	57.617187	-100.781250
1922.324208	1.099538	12.094919	0.252978
1923.302268	0.674148	99.121094	211.816406
1923.304270	0.938338	99.121094	211.816406
1923.306273	1.101692	99.121094	211.816406
1923.308273	1.103616	99.121094	211.816406
1923.310274	1.101220	12.113415	0.245403
1924.384330	0.458266	75.488281	-101.855469
1924.386332	0.729846	75.488281	-101.855469
1924.388331	0.990315	75.488281	-101.855469
1924.390330	1.105365	75.488281	-101.855469
1924.392330	1.102900	12.131902	0.248825
1925.366395	0.376638	100.488281	211.718750
1925.368397	0.650168	100.488281	211.718750
1925.370396	0.915473	100.488281	211.718750
1925.372396	1.097053	100.488281	211.718750
1925.374397	1.103706	100.488281	211.718750
1925.376396	1.101203	12.113237	0.246003
1926.456486	0.539955	87.207031	-100.292969
1926.458486	0.810086	87.207031	-100.292969
1926.460485	1.051212	87.207031	-100.292969
1926.462487	1.104784	87.207031	-100.292969
1926.464487	1.101764	12.119405	0.250900
1927.432567	0.375694	101.074219	211.816406
1927.434570	0.649265	101.074219	211.816406
1927.436570	0.914630	101.074219	211.816406
1927.438570	1.096325	101.074219	211.816406
1927.442568	1.100525	101.074219	211.816406
1927.444570	1.098989	12.088875	0.236533
1928.531121	0.901698	78.515625	-95.898437
1928.533122	1.093177	78.515625	-95.898437
1928.535123	1.103524	78.515625	-95.898437
1928.537124	1.103433	12.137759	0.249822
1929.499147	0.360484	101.757812	210.156250
1929.501149	0.634488	101.757812	210.156250
1929.503149	0.900566	101.757812	210.156250
1929.505150	1.092717	101.757812	210.156250
1929.507150	1.103458	101.757812	210.156250
1929.509149	1.100917	12.110083	0.233114
1930.595163	0.244795	87.695312	-94.335937
1930.597167	0.523537	87.695312	-94.335937
1930.599165	0.793938	87.695312	-94.335937
1930.601165	1.040596	87.695312	-94.335937
1930.603166	1.104876	87.695312	-94.335937
1930.605165	1.101755	12.119308	0.265922
1931.567183	0.280359	102.539062	207.031250
1931.569185	0.556644	102.539062	207.031250
1931.571185	0.826225	102.539062	207.031250
1931.573186	1.060495	102.539062	207.031250
1931.575185	1.103964	102.539062	207.031250
1931.577184	1.100970	12.110668	0.228341
1932.664180	0.480366	89.453125	-91.894531
1932.666181	0.751591	89.453125	-91.894531
1932.668182	1.008814	89.453125	-91.894531
1932.670181	1.105260	89.453125	-91.894531
1932.672184	1.102402	12.126425	0.279629
1933.640202	0.726577	98.437500	206.542969
1933.642204	0.987368	98.437500	206.542969
1933.644207	1.106012	98.437500	206.542969
1933.646207	1.103780	12.141579	0.220971
1934.732260	0.566360	108.300781	-93.457031
1934.734263	0.835658	108.300781	-93.457031
1934.736263	1.066267	108.300781	-93.457031
1934.738263	1.104892	108.300781	-93.457031
1934.740261	1.102069	12.122755	0.265745
1935.709182	0.532712	103.613281	201.757812
1935.711182	0.802932	103.613281	201.757812
1935.713181	1.046551	103.613281	201.757812
1935.715183	1.104661	103.613281	201.757812
1935.717183	1.101564	12.117208	0.515338
1936.797687	0.534333	75.097656	-90.429687
1936.799687	0.804646	75.097656	-90.429687
1936.801688	1.047778	75.097656	-90.429687
1936.803688	1.104949	75.097656	-90.429687
1936.805688	1.101879	12.120673	0.263085
1937.781762	0.482461	100.390625	204.101562
1937.783762	0.753525	100.390625	204.101562
1937.785762	1.010329	100.390625	204.101562
1937.787764	1.105580	100.390625	204.101562
1937.789762	1.102788	12.130669	0.230748
1938.861835	0.325587	76.953125	-93.066406
1938.863837	0.600611	76.953125	-93.066406
1938.865838	0.868301	76.953125	-93.066406
1938.867838	1.081555	76.953125	-93.066406
1938.869837	1.104088	76.953125	-93.066406
1938.871840	1.101489	12.116375	0.262482
1939.853855	0.556599	102.929687	202.832031
1939.855856	0.826221	102.929687	202.832031
1939.857855	1.060725	102.929687	202.832031
1939.859855	1.104371	102.929687	202.832031
1939.863853	1.099583	12.095415	0.630685
1940.930419	0.531057	70.507812	-94.726562
1940.934420	1.045588	70.507812	-94.726562
1940.936422	1.104666	70.507812	-94.726562
1940.938421	1.101620	12.117820	0.264758
1941.922473	0.661563	102.441406	206.250000
1941.924474	0.926373	102.441406	206.250000
1941.926474	1.099168	102.441406	206.250000
1941.928476	1.103284	102.441406	206.250000
1941.930477	1.100819	12.109011	0.239355
1942.999039	0.499192	78.125000	-97.656250
1943.001039	0.770027	78.125000	-97.656250
1943.003039	1.023380	78.125000	-97.656250
1943.005041	1.105331	78.125000	-97.656250
1943.007039	1.102251	12.124758	0.251954
1943.991580	0.326336	99.121094	211.718750
1943.993581	0.601336	99.121094	211.718750
1943.995580	0.868967	99.121094	211.718750
1943.997581	1.081863	99.121094	211.718750
1943.999582	1.104049	99.121094	211.718750
1944.001581	1.101420	12.115622	0.235144
1945.067682	0.659488	79.199219	-98.632812
1945.069684	0.924382	79.199219	-98.632812
1945.071684	0.933248	79.199219	-98.632812
1945.073684	1.103371	79.199219	-98.632812
1945.075684	1.100842	12.109267	0.255153
1946.062205	0.757617	99.902344	213.964844
1946.064207	1.013770	99.902344	213.964844
1946.066207	1.106059	99.902344	213.964844
1946.068208	1.103122	12.134347	0.282856
1947.136283	0.484358	55.078125	-95.996094
1947.138285	0.755432	55.078125	-95.996094
1947.140285	1.012183	55.078125	-95.996094
1947.142284	1.106679	55.078125	-95.996094
1947.144283	1.103812	12.141933	0.273080
1948.126347	0.287889	98.339844	216.406250
1948.128348	0.563875	98.339844	216.406250
1948.130348	0.833192	98.339844	216.406250
1948.132349	1.064548	98.339844	216.406250
1948.134349	1.104073	98.339844	216.406250
1948.136350	1.101185	12.113033	0.240911
1949.204363	0.230787	62.597656	-96.093750
1949.206364	0.510648	62.597656	-96.093750
1949.208364	0.781291	62.597656	-96.093750
1949.210365	1.031749	62.597656	-96.093750
1949.212364	1.105065	62.597656	-96.093750
1949.214366	1.102004	12.122046	0.248071
1950.194398	0.244023	99.902344	216.503906
1950.196400	0.522747	99.902344	216.503906
1950.198400	0.793071	99.902344	216.503906
1950.200401	1.039918	99.902344	216.503906
1950.202400	1.104640	99.902344	216.503906
1950.204399	1.101564	12.117199	0.244466
1951.272450	0.394410	70.898437	-96.582031
1951.274451	0.667594	70.898437	-96.582031
1951.276452	0.932079	70.898437	-96.582031
1951.278451	1.100281	70.898437	-96.582031
1951.280452	1.103234	70.898437	-96.582031
1951.282453	1.100785	12.108638	0.250887
1952.264499	0.275399	99.316406	217.285156
1952.266501	0.551795	99.316406	217.285156
1952.268503	0.821623	99.316406	217.285156
1952.270500	1.057889	99.316406	217.285156
1952.272503	1.104048	99.316406	217.285156
1952.274501	1.101033	12.111368	0.239706
1953.342578	0.480669	79.980469	-97.363281
1953.344582	0.751830	79.980469	-97.363281
1953.346581	1.009011	79.980469	-97.363281
1953.348580	1.105624	79.980469	-97.363281
1953.350582	1.102797	12.130768	0.253563
1954.337100	0.821194	99.902344	216.406250
1954.339101	1.058065	99.902344	216.406250
1954.341101	1.104905	99.902344	216.406250
1954.343102	1.101952	12.121470	0.611013
1955.409682	0.326066	67.773437	-95.800781
1955.411684	0.601009	67.773437	-95.800781
1955.413683	0.868643	67.773437	-95.800781
1955.415683	1.081535	67.773437	-95.800781
1955.417684	1.103781	67.773437	-95.800781
1955.419685	1.101069	12.111757	0.246746
1956.401736	0.333662	97.851562	217.382812
1956.403736	0.608387	97.851562	217.382812
1956.407736	1.084491	97.851562	217.382812
1956.411735	1.101401	97.851562	217.382812
1956.413737	1.099647	12.096115	0.238283
1957.479785	0.496946	83.007812	-95.800781
1957.481785	0.767810	83.007812	-95.800781
1957.483787	1.021801	83.007812	-95.800781
1957.485786	1.105975	83.007812	-95.800781
1957.487786	1.102990	12.132885	0.345086
1958.473771	0.471628	98.242187	216.015625
1958.475774	0.482423	98.242187	216.015625
1958.479772	1.005965	98.242187	216.015625
1958.481774	1.103541	98.242187	216.015625
1958.485772	1.100096	12.101052	0.231492
1959.547841	0.491843	82.519531	-93.359375
1959.549843	0.762791	82.519531	-93.359375
1959.551844	1.017764	82.519531	-93.359375
1959.553843	1.105661	82.519531	-93.359375
1959.555842	1.102724	12.129969	0.257277
1960.540441	0.485181	100.390625	212.890625
1960.542441	0.495941	100.390625	212.890625
1960.544442	1.012566	100.390625	212.890625
1960.546442	1.105867	100.390625	212.890625
1960.548441	1.102948	12.132423	0.271295
1961.618471	0.610780	92.968750	-91.796875
1961.620472	0.878004	92.968750	-91.796875
1961.622473	1.085428	92.968750	-91.796875
1961.624474	1.103934	92.968750	-91.796875
1961.626474	1.101282	12.114097	0.250097
1962.606490	0.415749	101.367187	210.644531
1962.608492	0.688218	101.367187	210.644531
1962.610495	0.951680	101.367187	210.644531
1962.612492	1.103408	101.367187	210.644531
1962.614492	1.103567	12.139239	0.231012
1963.688585	0.743490	67.480469	-86.035156
1963.690587	1.002068	67.480469	-86.035156
1963.692587	1.105664	67.480469	-86.035156
1963.694588	1.103012	12.133133	0.250026
1964.674586	0.484904	100.878906	210.546875
1964.676589	0.755887	100.878906	210.546875
1964.678588	1.012218	100.878906	210.546875
1964.680589	1.105707	100.878906	210.546875
1964.682587	1.102863	12.131494	0.271750
1965.760632	0.794079	96.679687	-87.011719
1965.762634	1.040688	96.679687	-87.011719
1965.764634	1.104857	96.679687	-87.011719
1965.766636	1.101787	12.119662	0.257269
1966.741190	0.613147	102.734375	208.886719
1966.743193	0.880169	102.734375	208.886719
1966.745193	1.085908	102.734375	208.886719
1966.747191	1.103405	102.734375	208.886719
1966.749192	1.100721	12.107928	0.222733
1967.830214	0.472955	81.054687	-83.691406
1967.832216	0.744198	81.054687	-83.691406
1967.834217	1.002841	81.054687	-83.691406
1967.836217	1.106626	81.054687	-83.691406
1967.838217	1.103845	12.142296	0.249446
1968.806243	0.370977	96.191406	215.722656
1968.808247	0.644671	96.191406	215.722656
1968.810245	0.910223	96.191406	215.722656
1968.812246	1.095104	96.191406	215.722656
1968.814245	1.096375	96.191406	215.722656
1968.816246	1.100539	12.105927	0.221566
1969.900314	0.486508	113.769531	-86.621094
1969.902317	0.757517	113.769531	-86.621094
1969.904315	1.013604	113.769531	-86.621094
1969.906317	1.105879	113.769531	-86.621094
1969.908318	1.102982	12.132805	0.251849
1970.873258	0.418617	95.507812	219.238281
1970.875260	0.691088	95.507812	219.238281
1970.877265	0.954431	95.507812	219.238281
1970.879261	1.104059	95.507812	219.238281
1970.881265	1.104057	12.144628	0.222065
1971.969288	0.413848	112.890625	-87.988281
1971.971290	0.686488	112.890625	-87.988281
1971.973290	0.950123	112.890625	-87.988281
1971.975291	1.102393	112.890625	-87.988281
1971.977291	1.102584	12.128419	0.248014
1972.943258	0.502469	94.824219	221.972656
1972.945262	0.773182	94.824219	221.972656
1972.947262	1.025709	94.824219	221.972656
1972.949262	1.105257	94.824219	221.972656
1972.951261	1.102165	12.123810	0.343087
1974.037300	0.402187	88.867187	-87.402344
1974.039301	0.675151	88.867187	-87.402344
1974.041308	0.939323	88.867187	-87.402344
1974.043310	1.102339	88.867187	-87.402344
1974.047310	1.101815	88.867187	-87.402344
1974.049310	1.100216	12.102372	0.246427
1975.015421	0.341947	93.261719	225.195312
1975.017424	0.616450	93.261719	225.195312
1975.019423	0.883294	93.261719	225.195312
1975.021422	1.087298	93.261719	225.195312
1975.023423	1.103844	93.261719	225.195312
1975.025424	1.101248	12.113725	0.219216
1976.105457	0.463130	91.308594	-88.867187
1976.107461	0.734608	91.308594	-88.867187
1976.109462	0.995064	91.308594	-88.867187
1976.111463	1.105788	91.308594	-88.867187
1976.113463	1.103281	12.136092	0.242358
1977.083479	0.512779	91.894531	227.441406
1977.085481	0.783261	91.894531	227.441406
1977.087482	1.032992	91.894531	227.441406
1977.089481	1.104430	91.894531	227.441406
1977.091480	1.101348	12.114832	0.405450
1978.175593	0.940794	93.847656	-91.503906
1978.177589	0.946355	93.847656	-91.503906
1978.179590	1.104101	93.847656	-91.503906
1978.181591	1.101812	12.119937	0.238719
1979.154508	0.545198	95.410156	225.390625
1979.156509	0.815214	95.410156	225.390625
1979.158509	1.054178	95.410156	225.390625
1979.160509	1.104447	95.410156	225.390625
1979.162510	1.101430	12.115728	0.570581
1980.239449	0.458440	75.195312	-91.015625
1980.241452	0.730030	75.195312	-91.015625
1980.243452	0.990333	75.195312	-91.015625
1980.245452	1.105329	75.195312	-91.015625
1980.247452	1.102809	12.130899	0.238786
1981.225502	0.693749	96.093750	225.390625
1981.227505	0.956938	96.093750	225.390625
1981.229503	1.103779	96.093750	225.390625
1981.233504	1.101020	12.111217	0.230863
1982.308030	0.836173	68.457031	-91.308594
1982.310033	0.844574	68.457031	-91.308594
1982.312032	1.104340	68.457031	-91.308594
1982.314033	1.101485	12.116330	0.238395
1983.294060	0.460776	94.921875	225.585937
1983.296064	0.732200	94.921875	225.585937
1983.298062	0.992257	94.921875	225.585937
1983.300062	1.104964	94.921875	225.585937
1983.302062	1.102370	12.126070	0.229333
1984.372156	0.418373	56.933594	-90.332031
1984.374156	0.690941	56.933594	-90.332031
1984.376154	0.954355	56.933594	-90.332031
1984.378154	1.103734	56.933594	-90.332031
1984.382152	1.101356	12.114912	0.238780
1985.364216	0.428906	97.656250	223.144531
1985.366218	0.701060	97.656250	223.144531
1985.368219	0.963855	97.656250	223.144531
1985.370218	1.103988	97.656250	223.144531
1985.372219	1.103040	12.133444	0.226130
1986.443208	1.013505	53.613281	-89.843750
1986.445212	1.105354	53.613281	-89.843750
1986.447211	1.102545	12.127993	0.278590
1987.431251	0.243153	94.140625	224.414062
1987.433252	0.521946	94.140625	224.414062
1987.435252	0.792257	94.140625	224.414062
1987.437253	1.039448	94.140625	224.414062
1987.439253	1.104683	94.140625	224.414062
1987.441251	1.101555	12.117110	0.238403
1988.507312	0.418353	64.257812	-89.843750
1988.509313	0.690850	64.257812	-89.843750
1988.511315	0.954633	64.257812	-89.843750
1988.513316	1.104189	64.257812	-89.843750
1988.515315	1.104040	12.144442	0.250066
1989.501372	0.349738	97.949219	221.582031
1989.503372	0.623972	97.949219	221.582031
1989.505374	0.890503	97.949219	221.582031
1989.507372	1.089287	97.949219	221.582031
1989.509377	1.103135	97.949219	221.582031
1989.511373	1.100461	12.105075	0.229881
1990.574282	0.315275	70.996094	-89.257812
1990.576283	0.590442	70.996094	-89.257812
1990.578283	0.858576	70.996094	-89.257812
1990.580284	1.076963	70.996094	-89.257812
1990.582283	1.103471	70.996094	-89.257812
1990.584285	1.100722	12.107946	0.253104
1991.572305	0.528363	93.261719	224.414062
1991.574306	0.798624	93.261719	224.414062
1991.576307	1.043727	93.261719	224.414062
1991.578306	1.104889	93.261719	224.414062
1991.580307	1.101902	12.120921	0.472669
1992.646361	0.668527	85.351562	-90.234375
1992.648363	0.932977	85.351562	-90.234375
1992.650367	1.100437	85.351562	-90.234375
1992.652365	1.103286	85.351562	-90.234375
1992.654368	1.100827	12.109098	0.237433
1993.640382	0.490895	92.968750	224.316406
1993.642384	0.761770	92.968750	224.316406
1993.644383	1.017200	92.968750	224.316406
1993.646385	1.107144	92.968750	224.316406
1993.650381	1.102323	12.125556	0.221854
1994.714496	0.552384	86.132812	-90.527344
1994.716498	0.822142	86.132812	-90.527344
1994.718499	1.058593	86.132812	-90.527344
1994.720499	1.104858	86.132812	-90.527344
1994.722500	1.101942	12.121364	0.246048
1995.706549	0.330956	97.558594	222.656250
1995.708550	0.605615	97.558594	222.656250
1995.710550	0.872981	97.558594	222.656250
1995.712552	1.083123	97.558594	222.656250
1995.714553	1.103587	97.558594	222.656250
1995.716551	1.100889	12.109781	0.226311
1996.783112	0.483279	65.039062	-88.183594
1996.785113	0.754314	65.039062	-88.183594
1996.787115	1.011131	65.039062	-88.183594
1996.789114	1.105931	65.039062	-88.183594
1996.791115	1.103098	12.134081	0.266749
1997.777133	0.478561	95.703125	225.292969
1997.779135	0.749646	95.703125	225.292969
1997.781133	1.007071	95.703125	225.292969
1997.783134	1.105371	95.703125	225.292969
1997.785133	1.102504	12.127549	0.229690
1998.851188	0.480947	76.171875	-88.964844
1998.853189	0.751981	76.171875	-88.964844
1998.855188	1.009076	76.171875	-88.964844
1998.857190	1.105469	76.171875	-88.964844
1998.859190	1.102637	12.129004	0.243743
1999.843725	0.342879	93.847656	227.734375
1999.845727	0.617314	93.847656	227.734375
1999.847729	0.884106	93.847656	227.734375
1999.849736	1.087455	93.847656	227.734375
1999.851740	1.103458	93.847656	227.734375
1999.853743	1.100813	12.108939	0.227727
2000.921791	0.733188	53.710937	-86.816406
2000.923791	0.993223	53.710937	-86.816406
2000.925791	1.105777	53.710937	-86.816406
2000.927792	1.103303	12.136333	0.238743
2001.913828	0.494675	91.992187	231.250000
2001.915829	0.765452	91.992187	231.250000
2001.917830	1.020109	91.992187	231.250000
2001.919828	1.106802	91.992187	231.250000
2001.921828	1.103894	12.142829	0.306926
2002.987891	0.248730	60.839844	-87.109375
2002.989892	0.527065	60.839844	-87.109375
2002.991895	0.797357	60.839844	-87.109375
2002.993894	1.042880	60.839844	-87.109375
2002.995894	1.104813	60.839844	-87.109375
2002.997894	1.101735	12.119086	0.245726
2003.979891	0.357030	95.117187	230.468750
2003.981893	0.631055	95.117187	230.468750
2003.983893	0.897226	95.117187	230.468750
2003.985893	1.091591	95.117187	230.468750
2003.987893	1.103208	95.117187	230.468750
2003.989893	1.100561	12.106174	0.232310
2005.060473	0.604083	79.492187	-87.988281
2005.062475	0.871529	79.492187	-87.988281
2005.064474	1.082562	79.492187	-87.988281
2005.068473	1.100781	79.492187	-87.988281
2005.070475	1.099124	12.090364	0.239065
2006.047047	0.422916	92.968750	232.714844
2006.049049	0.695183	92.968750	232.714844
2006.051049	0.958332	92.968750	232.714844
2006.053048	1.102787	92.968750	232.714844
2006.055050	1.102104	12.123145	0.227169
2007.131092	0.562548	81.250000	-86.328125
2007.133095	0.831868	81.250000	-86.328125
2007.135095	1.063897	81.250000	-86.328125
2007.137094	1.104215	81.250000	-86.328125
2007.139093	1.101266	12.113929	0.657026
2008.113586	0.294295	91.699219	234.570312
2008.115587	0.570151	91.699219	234.570312
2008.119584	1.067527	91.699219	234.570312
2008.121586	1.103686	91.699219	234.570312
2008.123585	1.100810	12.108912	0.227560
2009.201645	0.320873	78.125000	-84.179687
2009.203648	0.595969	78.125000	-84.179687
2009.205648	0.863782	78.125000	-84.179687
2009.207647	1.079234	78.125000	-84.179687
2009.209649	1.103342	78.125000	-84.179687
2009.211647	1.100610	12.106714	0.233449
2010.179659	0.223706	90.039062	235.449219
2010.181662	0.503982	90.039062	235.449219
2010.185659	1.026742	90.039062	235.449219
2010.187661	1.104966	90.039062	235.449219
2010.189661	1.101926	12.121187	0.233984
2011.269682	0.276236	81.835937	-82.519531
2011.271683	0.552560	81.835937	-82.519531
2011.273684	0.822407	81.835937	-82.519531
2011.275683	1.058722	81.835937	-82.519531
2011.277684	1.104745	81.835937	-82.519531
2011.279683	1.101808	12.119893	0.238625
2012.247735	0.331506	90.234375	233.789062
2012.251737	0.873538	90.234375	233.789062
2012.253738	1.083055	90.234375	233.789062
2012.255737	1.102959	90.234375	233.789062
2012.257735	1.100254	12.102798	0.221572
2013.339795	0.449174	93.066406	-82.128906
2013.341797	0.720924	93.066406	-82.128906
2013.343797	0.982285	93.066406	-82.128906
2013.345796	1.105292	93.066406	-82.128906
2013.347795	1.103271	12.135986	0.241893
2014.315817	0.522281	90.429687	232.910156
2014.317818	0.792643	90.429687	232.910156
2014.319819	1.039482	90.429687	232.910156
2014.321818	1.104280	90.429687	232.910156
2014.323819	1.101182	12.113007	0.215175
2015.409902	0.480558	104.492187	-80.859375
2015.411903	0.751660	104.492187	-80.859375
2015.413901	1.008836	104.492187	-80.859375
2015.415903	1.105485	104.492187	-80.859375
2015.419903	1.100511	12.105624	0.250844
2016.386397	0.685695	95.214844	228.125000
2016.388399	0.949342	95.214844	228.125000
2016.390398	1.102620	95.214844	228.125000
2016.392397	1.102931	12.132238	0.213614
2017.476976	0.516086	91.894531	-78.125000
2017.478980	0.786565	91.894531	-78.125000
2017.480979	1.035426	91.894531	-78.125000
2017.482980	1.104918	91.894531	-78.125000
2017.484978	1.101805	12.119858	0.242531
2018.455011	0.531432	97.265625	225.585937
2018.457015	0.801557	97.265625	225.585937
2018.459013	1.045492	97.265625	225.585937
2018.461013	1.104312	97.265625	225.585937
2018.463014	1.101140	12.112545	0.211875
2019.543973	0.364557	91.308594	-76.757812
2019.545976	0.638336	91.308594	-76.757812
2019.547976	0.904168	91.308594	-76.757812
2019.549976	1.093296	91.308594	-76.757812
2019.551975	1.102683	91.308594	-76.757812
2019.553976	1.100127	12.101397	0.240934
2020.526001	0.731134	92.871094	226.464844
2020.528003	0.991272	92.871094	226.464844
2020.530002	1.105137	92.871094	226.464844
2020.532004	1.102760	12.130360	0.211483
2021.610004	0.325136	102.050781	-77.539062
2021.612005	0.600075	102.050781	-77.539062
2021.614006	0.867745	102.050781	-77.539062
2021.616008	1.080858	102.050781	-77.539062
2021.618007	1.082664	102.050781	-77.539062
2021.620006	1.100735	12.108088	0.241485
2022.594026	0.511974	94.921875	224.414062
2022.598028	1.032313	94.921875	224.414062
2022.600028	1.104134	94.921875	224.414062
2022.602028	1.100931	12.110242	0.394709
2023.676101	0.313550	83.789062	-76.757812
2023.678100	0.588797	83.789062	-76.757812
2023.680100	0.857019	83.789062	-76.757812
2023.684098	1.078111	83.789062	-76.757812
2023.686100	1.100622	83.789062	-76.757812
2023.688101	1.098978	12.088759	0.244374
2024.666128	0.570822	97.167969	222.558594
2024.668130	0.839683	97.167969	222.558594
2024.670131	1.067809	97.167969	222.558594
2024.672132	1.103637	97.167969	222.558594
2024.674132	1.100658	12.107237	0.218375
2025.744667	0.537261	88.867187	-78.906250
2025.748667	1.049168	88.867187	-78.906250
2025.750670	1.104124	88.867187	-78.906250
2025.752669	1.101017	12.111190	0.246148
2026.736667	0.554750	98.046875	222.265625
2026.738668	0.824389	98.046875	222.265625
2026.740670	1.059435	98.046875	222.265625
2026.742670	1.103719	98.046875	222.265625
2026.744670	1.100651	12.107158	0.216181
2027.810718	0.396201	71.093750	-78.808594
2027.812720	0.669247	71.093750	-78.808594
2027.814720	0.933576	71.093750	-78.808594
2027.816719	1.099940	71.093750	-78.808594
2027.818720	1.102546	71.093750	-78.808594
2027.820720	1.100036	12.100396	0.246026
2028.804767	0.307958	96.093750	225.000000
2028.806768	0.583299	96.093750	225.000000
2028.808769	0.851622	96.093750	225.000000
2028.810768	1.073448	96.093750	225.000000
2028.812768	1.103072	96.093750	225.000000
2028.814768	1.100180	12.101982	0.214773
2029.879327	0.344807	88.281250	-81.347656
2029.881330	0.619207	88.281250	-81.347656
2029.883329	0.885962	88.281250	-81.347656
2029.885330	1.087981	88.281250	-81.347656
2029.887329	1.103300	88.281250	-81.347656
2029.889329	1.100766	12.108425	0.231722
2030.872279	0.204885	92.382812	229.394531
2030.874281	0.486535	92.382812	229.394531
2030.876280	0.757427	92.382812	229.394531
2030.880279	1.105366	92.382812	229.394531
2030.882280	1.102483	92.382812	229.394531
2030.884279	1.100322	12.103542	0.227927
2031.946322	0.333678	65.136719	-80.371094
2031.948323	0.608324	65.136719	-80.371094
2031.950321	0.875572	65.136719	-80.371094
2031.952323	1.084311	65.136719	-80.371094
2031.954322	1.103702	65.136719	-80.371094
2031.956322	1.101017	12.111181	0.240762
2032.944422	0.763538	93.945312	229.785156
2032.946423	1.018266	93.945312	229.785156
2032.948424	1.105474	93.945312	229.785156
2032.950424	1.102447	12.126922	0.296697
2034.014472	0.464335	64.843750	-80.859375
2034.016474	0.735732	64.843750	-80.859375
2034.018474	0.995377	64.843750	-80.859375
2034.020474	1.105783	64.843750	-80.859375
2034.022484	1.103209	12.135295	0.234996
2035.012542	0.489022	91.796875	232.617187
2035.014545	0.759867	91.796875	232.617187
2035.016544	1.015528	91.796875	232.617187
2035.018545	1.105970	91.796875	232.617187
2035.020544	1.103153	12.134685	0.270601
2036.084610	0.393666	74.316406	-81.933594
2036.086612	0.666693	74.316406	-81.933594
2036.088613	0.931235	74.316406	-81.933594
2036.090612	1.099632	74.316406	-81.933594
2036.092613	1.102674	74.316406	-81.933594
2036.094612	1.100217	12.102389	0.230954
2037.078661	0.231001	91.699219	233.789062
2037.082661	0.781290	91.699219	233.789062
2037.084663	1.032062	91.699219	233.789062
2037.086664	1.106858	91.699219	233.789062
2037.088661	1.103736	12.141091	0.226155
2038.152717	0.413757	58.007812	-80.078125
2038.154719	0.686267	58.007812	-80.078125
2038.156720	0.949897	58.007812	-80.078125
2038.158720	1.102612	58.007812	-80.078125
2038.160720	1.102905	12.131954	0.233435
2039.148772	0.511656	91.406250	233.593750
2039.150776	0.782148	91.406250	233.593750
2039.152774	1.032102	91.406250	233.593750
2039.154774	1.104356	91.406250	233.593750
2039.156775	1.101235	12.113583	0.218349
2040.222834	0.653128	79.492187	-81.933594
2040.224834	0.918276	79.492187	-81.933594
2040.226835	0.923309	79.492187	-81.933594
2040.230835	1.100840	79.492187	-81.933594
2040.232834	1.099343	12.092773	0.237857
2041.217390	0.426809	93.847656	231.738281
2041.219394	0.698976	93.847656	231.738281
2041.221394	0.962130	93.847656	231.738281
2041.223394	1.105198	93.847656	231.738281
2041.225394	1.104434	12.148775	0.211820
2042.291425	0.581924	57.421875	-79.003906
2042.293428	0.850336	57.421875	-79.003906
2042.295426	1.073244	57.421875	-79.003906
2042.297426	1.103769	57.421875	-79.003906
2042.299426	1.101008	12.111093	0.756578
2043.287481	0.593592	90.625000	233.105469
2043.289482	0.861480	90.625000	233.105469
2043.291482	1.078051	90.625000	233.105469
2043.293482	1.103210	90.625000	233.105469
2043.295483	1.100439	12.104827	0.211791
2044.359522	0.634531	87.988281	-80.273437
2044.361523	0.900482	87.988281	-80.273437
2044.363523	1.092385	87.988281	-80.273437
2044.365523	1.102931	87.988281	-80.273437
2044.367523	1.100331	12.103640	0.231331
2045.356049	0.692882	92.773437	231.445312
2045.358048	0.956118	92.773437	231.445312
2045.360050	1.102723	92.773437	231.445312
2045.362050	1.102206	12.124262	0.220420
2046.426042	0.312889	93.847656	-79.003906
2046.428043	0.588059	93.847656	-79.003906
2046.430043	0.856264	93.847656	-79.003906
2046.432043	1.075885	93.847656	-79.003906
2046.434042	1.103507	93.847656	-79.003906
2046.438042	1.099083	12.089911	0.239457
2047.422575	0.479885	96.679687	227.929687
2047.424578	0.750874	96.679687	227.929687
2047.426575	1.008087	96.679687	227.929687
2047.428577	1.105320	96.679687	227.929687
2047.430577	1.102437	12.126806	0.217098
2048.495549	0.331540	75.390625	-75.585937
2048.497551	0.606289	75.390625	-75.585937
2048.499553	0.873623	75.390625	-75.585937
2048.501551	1.083831	75.390625	-75.585937
2048.503552	1.104230	75.390625	-75.585937
2048.505552	1.101602	12.117624	0.245522
2049.489587	0.469819	91.601562	230.468750
2049.491588	0.741011	91.601562	230.468750
2049.493590	0.999843	91.601562	230.468750
2049.495589	1.105450	91.601562	230.468750
2049.497589	1.102868	12.131546	0.211270
2050.567683	0.692157	74.609375	-73.828125
2050.569687	0.955487	74.609375	-73.828125
2050.571685	1.103551	74.609375	-73.828125
2050.573686	1.103352	12.136873	0.235457
2051.557692	0.665159	95.214844	228.417969
2051.559695	0.929653	95.214844	228.417969
2051.561693	1.099427	95.214844	228.417969
2051.563694	1.102824	95.214844	228.417969
2051.565692	1.100349	12.103834	0.212969
2052.636254	0.243762	96.191406	-73.730469
2052.638255	0.522480	96.191406	-73.730469
2052.640255	0.792826	96.191406	-73.730469
2052.642255	1.039841	96.191406	-73.730469
2052.646254	1.101783	96.191406	-73.730469
2052.648254	1.099759	12.097347	0.236015
2053.624301	0.479087	93.164062	230.664062
2053.626303	0.750134	93.164062	230.664062
2053.628302	1.007530	93.164062	230.664062
2053.630303	1.105525	93.164062	230.664062
2053.634302	1.100573	12.106298	0.208376
2054.706332	0.381570	103.222656	-73.046875
2054.708335	0.654970	103.222656	-73.046875
2054.710335	0.919943	103.222656	-73.046875
2054.712335	1.097390	103.222656	-73.046875
2054.714335	1.102757	103.222656	-73.046875
2054.716334	1.100258	12.102833	0.240255
2055.690387	0.397648	92.285156	233.984375
2055.692390	0.670591	92.285156	233.984375
2055.694388	0.934839	92.285156	233.984375
2055.696390	1.100096	92.285156	233.984375
2055.698389	1.102496	92.285156	233.984375
2055.700392	1.100009	12.100095	0.207337
2056.776421	0.320360	112.792969	-72.070312
2056.778422	0.595404	112.792969	-72.070312
2056.780424	0.863264	112.792969	-72.070312
2056.784422	1.103375	112.792969	-72.070312
2056.786424	1.100597	112.792969	-72.070312
2056.788421	1.098933	12.088263	0.237629
2057.756987	0.314529	92.578125	236.132812
2057.758990	0.589741	92.578125	236.132812
2057.760990	0.857737	92.578125	236.132812
2057.762992	1.076541	92.578125	236.132812
2057.764990	1.103362	92.578125	236.132812
2057.768988	1.098934	12.088272	0.206349
2058.847057	0.475779	115.527344	-72.949219
2058.849058	0.746921	115.527344	-72.949219
2058.851057	1.004984	115.527344	-72.949219
2058.853056	1.106427	115.527344	-72.949219
2058.855057	1.103727	12.140994	0.224890
2059.826016	0.566022	92.578125	237.890625
2059.828019	0.835127	92.578125	237.890625
2059.830018	1.065425	92.578125	237.890625
2059.832019	1.103813	92.578125	237.890625
2059.834022	1.100857	12.109426	0.211237
2060.914617	0.277870	98.437500	-71.484375
2060.916618	0.554207	98.437500	-71.484375
2060.918617	0.823866	98.437500	-71.484375
2060.920617	1.059393	98.437500	-71.484375
2060.922617	1.104308	98.437500	-71.484375
2060.924619	1.101333	12.114664	0.234738
2061.892663	0.292594	90.429687	242.773437
2061.894664	0.568383	90.429687	242.773437
2061.896672	0.837332	90.429687	242.773437
2061.900669	1.103603	90.429687	242.773437
2061.902672	1.100659	90.429687	242.773437
2061.906670	1.097897	12.076866	0.207237
2062.982703	0.366111	111.816406	-73.437500
2062.986701	0.905573	111.816406	-73.437500
2062.988704	1.093639	111.816406	-73.437500
2062.990703	1.095112	111.816406	-73.437500
2062.992705	1.100063	12.100697	0.236778
2063.960705	0.376671	93.554687	242.382812
2063.962707	0.650127	93.554687	242.382812
2063.964709	0.660711	93.554687	242.382812
2063.966709	1.096670	93.554687	242.382812
2063.968709	1.103311	93.554687	242.382812
2063.970708	1.100753	12.108284	0.212073
2065.053712	0.468216	91.699219	-73.339844
2065.055715	0.739514	91.699219	-73.339844
2065.057715	0.998715	91.699219	-73.339844
2065.059714	1.106062	91.699219	-73.339844
2065.061715	1.103346	12.136811	0.227386
2066.029752	0.436891	90.332031	245.605469
2066.033752	0.970893	90.332031	245.605469
2066.035755	1.103628	90.332031	245.605469
2066.039767	1.099617	12.095787	0.212994
2067.121826	0.679737	101.171875	-75.195312
2067.125834	1.101804	101.171875	-75.195312
2067.127836	1.102719	101.171875	-75.195312
2067.129836	1.100208	12.102292	0.226907
2068.100422	0.440439	88.574219	247.656250
2068.102426	0.712284	88.574219	247.656250
2068.104426	0.730740	88.574219	247.656250
2068.106432	1.104705	88.574219	247.656250
2068.108430	1.103013	12.133142	0.211273
