time (s)	coil I (A)	last det (V)	int current (uC)
3338.366203	0.656213	468.554687	-24.707031
3338.368206	0.654961	7.204566	0.378530
3339.412209	0.344042	126.171875	199.414062
3339.414211	0.614702	126.171875	199.414062
3339.416210	0.655237	126.171875	199.414062
3339.420210	0.652352	7.175870	0.381018
3340.438258	0.502599	469.238281	-24.707031
3340.440260	0.655721	469.238281	-24.707031
3340.442260	0.654793	7.202723	0.366712
3341.492356	0.523555	122.070312	209.765625
3341.494359	0.655438	122.070312	209.765625
3341.496359	0.653804	7.191849	0.379843
3342.516926	0.295049	467.968750	-23.730469
3342.518928	0.586634	467.968750	-23.730469
3342.520930	0.655305	467.968750	-23.730469
3342.522930	0.653368	7.187045	0.381954
3343.569019	0.485332	121.777344	209.179687
3343.571023	0.654248	121.777344	209.179687
3343.573023	0.654380	7.198176	0.349547
3344.593567	0.411524	469.042969	-23.535156
3344.595570	0.641334	469.042969	-23.535156
3344.597569	0.654813	469.042969	-23.535156
3344.599570	0.653260	7.185858	0.358408
3345.643609	0.626362	117.871094	230.761719
3345.645610	0.655246	117.871094	230.761719
3345.647612	0.653500	7.188499	0.385553
3346.665627	0.330599	470.117187	-24.121094
3346.667630	0.607595	470.117187	-24.121094
3346.669629	0.655122	470.117187	-24.121094
3346.671628	0.653288	7.186168	0.381885
3347.719632	0.298023	120.214844	220.507812
3347.721634	0.588901	120.214844	220.507812
3347.723634	0.656149	120.214844	220.507812
3347.725633	0.654041	7.194446	0.360652
3348.747700	0.563083	471.484375	-23.925781
3348.749704	0.656533	471.484375	-23.925781
3348.751704	0.654316	7.197476	0.372333
3349.798222	0.478616	116.503906	229.882812
3349.800223	0.653813	116.503906	229.882812
3349.802224	0.654221	7.196430	0.360841
3350.824271	0.550828	471.191406	-23.828125
3350.826274	0.656050	471.191406	-23.828125
3350.828274	0.653984	7.193825	0.351866
3351.873226	0.566264	116.503906	234.277344
3351.875228	0.657204	116.503906	234.277344
3351.877229	0.654932	7.204247	0.373309
3352.899291	0.595177	470.410156	-24.902344
3352.901293	0.655693	470.410156	-24.902344
3352.903294	0.653647	7.190121	0.382969
3353.949290	0.627000	115.136719	236.132812
3353.951290	0.655108	115.136719	236.132812
3353.953290	0.653427	7.187701	0.368885
3354.975371	0.407977	469.433594	-25.000000
3354.977372	0.639982	469.433594	-25.000000
3354.979372	0.654358	469.433594	-25.000000
3354.981371	0.652795	7.180745	0.366218
3356.025455	0.520159	119.335937	219.921875
3356.027457	0.655736	119.335937	219.921875
3356.029457	0.654181	7.195996	0.368135
3357.053486	0.546886	472.460937	-24.316406
3357.057486	0.654281	472.460937	-24.316406
3357.059489	0.653014	7.183155	0.362383
3358.104083	0.656291	118.945312	224.902344
3358.106085	0.654164	7.195802	0.410959
3359.130639	0.573451	473.925781	-24.707031
3359.132641	0.656020	473.925781	-24.707031
3359.134639	0.653904	7.192947	0.552360
3360.174637	0.394758	121.582031	217.773437
3360.176639	0.635833	121.582031	217.773437
3360.178640	0.654540	121.582031	217.773437
3360.180639	0.652950	7.182455	0.374774
3361.207230	0.655557	473.535156	-25.390625
3361.209229	0.653711	7.190821	0.369955
3362.253868	0.394857	121.777344	213.378906
3362.255870	0.635628	121.777344	213.378906
3362.257868	0.654308	121.777344	213.378906
3362.259870	0.652713	7.179841	0.356400
3363.283910	0.338299	472.167969	-25.585937
3363.285913	0.611501	472.167969	-25.585937
3363.289910	0.652920	472.167969	-25.585937
3363.291912	0.651859	7.170446	0.360644
3364.327932	0.540556	118.847656	224.121094
3364.329935	0.656412	118.847656	224.121094
3364.331933	0.654368	7.198052	0.371160
3365.360536	0.370920	469.726562	-26.367187
3365.362537	0.626768	469.726562	-26.367187
3365.364539	0.654747	469.726562	-26.367187
3365.366539	0.653062	7.183678	0.360622
3366.403022	0.534811	119.628906	221.386719
3366.405024	0.655616	119.628906	221.386719
3366.407024	0.653794	7.191734	0.379617
3367.437615	0.472435	472.070312	-25.683594
3367.439617	0.653029	472.070312	-25.683594
3367.441618	0.654322	7.197538	0.370668
3368.477665	0.298516	116.992187	231.640625
3368.479666	0.588647	116.992187	231.640625
3368.481668	0.655011	116.992187	231.640625
3368.483666	0.653017	7.183190	0.365564
3369.515685	0.451111	473.242187	-25.585937
3369.517686	0.649738	473.242187	-25.585937
3369.519685	0.653879	473.242187	-25.585937
3369.521686	0.652432	7.176748	0.352215
3370.555758	0.552446	114.257812	243.652344
3370.557760	0.656456	114.257812	243.652344
3370.561759	0.653148	7.184626	0.434610
3371.591830	0.368747	470.410156	-25.683594
3371.593830	0.626118	470.410156	-25.683594
3371.595830	0.655048	470.410156	-25.683594
3371.599828	0.652314	7.175453	0.347305
3372.631843	0.574791	114.843750	242.187500
3372.633842	0.655525	114.843750	242.187500
3372.635843	0.653428	7.187710	0.565568
3373.667847	0.348225	475.878906	-25.390625
3373.669850	0.616717	475.878906	-25.390625
3373.671849	0.655065	475.878906	-25.390625
3373.673849	0.653272	7.185991	0.369286
3374.706427	0.569615	117.089844	237.109375
3374.708431	0.655606	117.089844	237.109375
3374.710430	0.653493	7.188419	0.371764
3375.746525	0.499904	470.703125	-25.390625
3375.748527	0.655259	470.703125	-25.390625
3375.750528	0.654438	7.198815	0.351847
3376.782579	0.426112	116.699219	236.816406
3376.784580	0.644688	116.699219	236.816406
3376.786579	0.654159	116.699219	236.816406
3376.788579	0.652607	7.178679	0.347771
3377.822674	0.535023	470.703125	-26.074219
3377.824673	0.656527	470.703125	-26.074219
3377.826674	0.654563	7.200189	0.339117
3378.858723	0.422418	112.695312	252.929687
3378.860725	0.644157	112.695312	252.929687
3378.862725	0.654515	112.695312	252.929687
3378.864724	0.653079	7.183864	0.356397
3379.900752	0.655479	473.144531	-25.390625
3379.902756	0.653832	473.144531	-25.390625
3379.906753	0.651654	7.168195	0.360444
3380.934797	0.559245	112.304687	252.539062
3380.936799	0.656725	112.304687	252.539062
3380.938797	0.654587	7.200454	0.372963
3381.974816	0.433037	472.558594	-26.171875
3381.976818	0.646585	472.558594	-26.171875
3381.978821	0.654287	472.558594	-26.171875
3381.980819	0.652753	7.180284	0.350492
3383.016898	0.653248	117.285156	233.203125
3383.018898	0.652220	7.174425	0.350717
3384.049407	0.387263	472.265625	-26.074219
3384.051408	0.633244	472.265625	-26.074219
3384.053407	0.654753	472.265625	-26.074219
3384.055408	0.653097	7.184068	0.349591
3385.089464	0.631708	116.992187	236.816406
3385.091466	0.654766	116.992187	236.816406
3385.093466	0.653138	7.184520	0.349470
3386.128017	0.557379	473.632812	-25.683594
3386.130018	0.655939	473.632812	-25.683594
3386.132018	0.653874	7.192611	0.352948
3387.164572	0.289060	117.968750	231.152344
3387.166574	0.582559	117.968750	231.152344
3387.168574	0.654981	117.968750	231.152344
3387.170576	0.652887	7.181755	0.371102
3388.202618	0.608176	473.828125	-26.562500
3388.204623	0.654704	473.828125	-26.562500
3388.206624	0.652828	7.181108	0.361027
3389.241213	0.519975	115.722656	239.648437
3389.243213	0.655470	115.722656	239.648437
3389.245213	0.653926	7.193187	0.348839
3390.279805	0.608882	470.703125	-26.367187
3390.281809	0.654938	470.703125	-26.367187
3390.283810	0.653153	7.184688	0.341214
3391.322432	0.656580	113.085937	249.609375
3391.324434	0.654406	113.085937	249.609375
3391.326433	0.653201	7.185211	0.433340
3392.352485	0.342515	472.656250	-26.660156
3392.354487	0.613936	472.656250	-26.660156
3392.356489	0.655145	472.656250	-26.660156
3392.358487	0.653323	7.186549	0.356520
3393.397052	0.576621	113.085937	249.316406
3393.399053	0.655327	113.085937	249.316406
3393.401052	0.653282	7.186097	0.356489
3394.431094	0.627307	468.164062	-26.660156
3394.433095	0.654772	468.164062	-26.660156
3394.435095	0.653097	7.184068	0.353291
3395.471165	0.511320	111.132812	256.054687
3395.473164	0.654853	111.132812	256.054687
3395.475166	0.653713	7.190847	0.358748
3396.509215	0.653755	472.656250	-26.855469
3396.511219	0.652534	7.177873	0.346657
3397.549790	0.299253	111.035156	256.640625
3397.553791	0.655643	111.035156	256.640625
3397.555793	0.653627	111.035156	256.640625
3397.557792	0.652530	7.177829	0.347065
3398.585808	0.653642	466.894531	-26.953125
3398.587811	0.652305	466.894531	-26.953125
3398.589811	0.651400	7.165403	0.389315
3399.625837	0.323437	116.015625	240.234375
3399.627838	0.603805	116.015625	240.234375
3399.629838	0.655322	116.015625	240.234375
3399.631837	0.653460	7.188065	0.345895
3400.654423	0.319852	465.722656	-26.660156
3400.656425	0.601510	465.722656	-26.660156
3400.658425	0.654870	465.722656	-26.660156
3400.660424	0.653004	7.183048	0.356412
3401.702494	0.279396	115.234375	242.773437
3401.704495	0.575981	115.234375	242.773437
3401.706497	0.655048	115.234375	242.773437
3401.708496	0.652988	7.182871	0.348006
3402.731090	0.359510	470.117187	-26.269531
3402.733092	0.621650	470.117187	-26.269531
3402.735092	0.654418	470.117187	-26.269531
3402.737092	0.652742	7.180160	0.349141
3403.785160	0.653949	115.625000	243.066406
3403.787161	0.652567	7.178236	0.336490
3404.810101	0.654204	461.621094	-26.074219
3404.812102	0.653960	7.193559	0.340224
3405.856101	0.403240	114.843750	247.558594
3405.858101	0.638306	114.843750	247.558594
3405.860104	0.654241	114.843750	247.558594
3405.864102	0.651594	7.167531	0.341549
3406.885082	0.616911	468.945312	-25.781250
3406.887084	0.654859	468.945312	-25.781250
3406.889084	0.653139	7.184528	0.340036
3407.933652	0.419223	109.472656	267.578125
3407.935652	0.642930	109.472656	267.578125
3407.937652	0.654137	109.472656	267.578125
3407.941650	0.651541	7.166955	0.343475
3408.961685	0.652575	467.871094	-25.292969
3408.963686	0.656093	467.871094	-25.292969
3408.965687	0.654497	7.199471	0.338207
3410.010207	0.402719	109.960937	265.527344
3410.012208	0.638495	109.960937	265.527344
3410.014209	0.654603	109.960937	265.527344
3410.016207	0.653000	7.183004	0.334755
3411.038284	0.648926	469.433594	-25.195312
3411.040285	0.654278	469.433594	-25.195312
3411.042286	0.652820	7.181019	0.337199
3412.085243	0.505166	111.816406	263.281250
3412.087246	0.655122	111.816406	263.281250
3412.089245	0.654108	7.195190	0.344022
3413.108795	2.330938	467.871094	-25.390625
3413.114150	0.648153	467.871094	-25.390625
3413.116151	0.654178	467.871094	-25.390625
3413.118154	0.652656	7.179220	0.337566
3414.164697	0.656038	111.328125	264.941406
3414.166699	0.654000	111.328125	264.941406
3414.168698	0.652745	7.180195	0.368248
3415.188709	0.381297	462.011719	-25.585937
3415.190709	0.630600	462.011719	-25.585937
3415.194709	0.652560	462.011719	-25.585937
3415.196709	0.651452	7.165971	0.344265
3416.240748	0.641027	112.402344	258.105469
3416.242748	0.654379	112.402344	258.105469
3416.244748	0.652823	7.181055	0.334431
3417.265314	0.411795	461.914062	-25.683594
3417.267316	0.641312	461.914062	-25.683594
3417.269315	0.654679	461.914062	-25.683594
3417.271314	0.653081	7.183890	0.336887
3418.315414	0.642803	113.476562	254.101562
3418.317415	0.654153	113.476562	254.101562
3418.319414	0.652613	7.178741	0.340657
3419.341947	0.523068	461.035156	-26.562500
3419.343949	0.655436	461.035156	-26.562500
3419.347947	0.652547	7.178015	0.339408
3420.389969	0.360986	110.644531	265.820312
3420.391972	0.622639	110.644531	265.820312
3420.393970	0.654962	110.644531	265.820312
3420.395970	0.653166	7.184830	0.338371
3421.418022	0.471229	469.824219	-26.171875
3421.420024	0.652458	469.824219	-26.171875
3421.422023	0.653958	7.193542	0.335442
3422.466080	0.391112	112.011719	258.789062
3422.468083	0.634203	112.011719	258.789062
3422.472081	0.652517	112.011719	258.789062
3422.474082	0.652471	7.177182	0.337342
3423.494639	0.535648	468.261719	-26.660156
3423.496642	0.655723	468.261719	-26.660156
3423.498640	0.653828	7.192106	0.327786
3424.542676	0.419189	110.742187	261.230469
3424.544678	0.642987	110.742187	261.230469
3424.546678	0.654256	110.742187	261.230469
3424.548679	0.652698	7.179681	0.332605
3425.571233	0.488418	468.261719	-27.636719
3425.573233	0.653810	468.261719	-27.636719
3425.575235	0.653717	7.190883	0.339806
3426.620225	0.654022	110.253906	262.695312
3426.622226	0.654517	7.199683	0.332697
3427.648813	0.622036	465.527344	-27.832031
3427.652813	0.652707	465.527344	-27.832031
3427.654816	0.651557	7.167123	0.335885
3428.692884	0.523862	108.886719	267.382812
3428.694885	0.655906	108.886719	267.382812
3428.696886	0.654194	7.196129	0.337848
3429.726955	0.645695	459.082031	-27.832031
3429.728958	0.653991	459.082031	-27.832031
3429.730958	0.652481	7.177288	0.327290
3430.769488	0.437919	111.230469	259.082031
3430.771488	0.647318	111.230469	259.082031
3430.773487	0.654010	111.230469	259.082031
3430.775488	0.652463	7.177093	0.326511
3431.802042	0.530932	462.792969	-27.734375
3431.804045	0.656335	462.792969	-27.734375
3431.806045	0.654556	7.200117	0.329197
3432.844115	0.359877	108.984375	269.726562
3432.846116	0.622018	108.984375	269.726562
3432.848118	0.654774	108.984375	269.726562
3432.852115	0.651943	7.171368	0.333380
3433.878117	0.480525	462.597656	-27.734375
3433.880119	0.653511	462.597656	-27.734375
3433.882119	0.654061	7.194676	0.336792
3434.920146	0.645003	113.476562	254.785156
3434.922148	0.654289	113.476562	254.785156
3434.924149	0.652697	7.179672	0.341034
3435.955086	0.446847	462.402344	-27.832031
3435.957089	0.649393	462.402344	-27.832031
3435.959089	0.654422	462.402344	-27.832031
3435.963087	0.651970	7.171669	0.336048
3436.995140	0.316508	107.617187	276.269531
3436.997142	0.599727	107.617187	276.269531
3436.999143	0.655195	107.617187	276.269531
3437.001144	0.653208	7.185291	0.329259
3438.031200	0.480959	471.093750	-27.734375
3438.033201	0.652968	471.093750	-27.734375
3438.035203	0.653490	7.188393	0.325755
3439.070174	0.299777	108.789062	271.679687
3439.072175	0.589822	108.789062	271.679687
3439.074177	0.655832	108.789062	271.679687
3439.078173	0.652691	7.179601	0.333400
3440.110226	0.642698	461.425781	-27.832031
3440.112227	0.654307	461.425781	-27.832031
3440.114226	0.652747	7.180213	0.327697
3441.146286	0.415893	107.128906	278.710937
3441.148289	0.642567	107.128906	278.710937
3441.150288	0.654742	107.128906	278.710937
3441.152288	0.653175	7.184927	0.335745
3442.186358	0.608739	469.726562	-27.734375
3442.188359	0.654624	469.726562	-27.734375
3442.190358	0.652774	7.180514	0.328893
3443.222954	0.414460	109.570312	269.824219
3443.224961	0.641682	109.570312	269.824219
3443.226956	0.654144	109.570312	269.824219
3443.228956	0.653976	7.193736	0.326772
3444.261505	0.408761	465.332031	-28.125000
3444.263506	0.640130	465.332031	-28.125000
3444.265505	0.654437	465.332031	-28.125000
3444.267506	0.652795	7.180745	0.320760
3445.299591	0.521499	108.105469	275.488281
3445.301592	0.655696	108.105469	275.488281
3445.303594	0.654087	7.194960	0.327071
3446.339636	0.648850	468.554687	-27.734375
3446.341637	0.654857	468.554687	-27.734375
3446.343637	0.653389	7.187276	0.324719
3447.376251	0.519635	110.937500	267.089844
3447.378252	0.655653	110.937500	267.089844
3447.380251	0.654052	7.194570	0.324861
3448.414294	0.479451	465.917969	-27.734375
3448.416297	0.654888	465.917969	-27.734375
3448.418299	0.655616	7.211781	0.323791
3449.452334	0.509145	111.230469	265.332031
3449.454336	0.655467	111.230469	265.332031
3449.456338	0.654254	7.196794	0.327831
3450.492382	0.645052	467.773437	-28.027344
3450.494382	0.654175	467.773437	-28.027344
3450.496383	0.652697	7.179672	0.314205
3451.528954	0.502425	109.863281	270.410156
3451.530956	0.655616	109.863281	270.410156
3451.532956	0.654686	7.201544	0.325713
3452.567932	0.650886	465.625000	-28.125000
3452.569934	0.654909	465.625000	-28.125000
3452.571937	0.653394	7.187329	0.321983
3453.604519	0.558752	106.152344	282.714844
3453.606520	0.656134	106.152344	282.714844
3453.608519	0.653969	7.193657	0.442417
3454.640601	0.339293	462.988281	-28.125000
3454.642607	0.611991	462.988281	-28.125000
3454.644606	0.654622	462.988281	-28.125000
3454.646608	0.652793	7.180717	0.326469
3455.680674	0.526726	105.761719	284.863281
3455.682676	0.656500	105.761719	284.863281
3455.684675	0.654674	7.201411	0.326134
3456.716726	0.334293	465.429687	-28.027344
3456.718728	0.609333	465.429687	-28.027344
3456.720729	0.654554	465.429687	-28.027344
3456.722728	0.652740	7.180142	0.319469
3457.758796	0.578534	104.492187	291.406250
3457.760797	0.655217	104.492187	291.406250
3457.762797	0.653193	7.185122	0.551029
3458.792842	0.486535	464.648437	-28.125000
3458.794845	0.653518	464.648437	-28.125000
3458.796844	0.653580	7.189376	0.319229
3459.836877	0.655375	109.863281	270.703125
3459.838878	0.654475	7.199222	0.319073
3460.866920	0.322759	459.863281	-28.222656
3460.868922	0.603182	459.863281	-28.222656
3460.870923	0.655019	459.863281	-28.222656
3460.872924	0.653189	7.185078	0.325745
3461.911029	0.385639	105.273437	287.207031
3461.913031	0.632626	105.273437	287.207031
3461.915029	0.654625	105.273437	287.207031
3461.917031	0.652967	7.182632	0.320763
3462.945106	0.478904	458.300781	-28.027344
3462.947108	0.653066	458.300781	-28.027344
3462.949108	0.653847	7.192319	0.314152
3463.987202	0.305725	102.343750	297.656250
3463.989204	0.593103	102.343750	297.656250
3463.991203	0.655103	102.343750	297.656250
3463.993204	0.653050	7.183554	0.326056
3465.019227	0.401319	457.421875	-27.929687
3465.021229	0.637803	457.421875	-27.929687
3465.025225	0.652601	457.421875	-27.929687
3465.031225	0.650076	7.150835	0.317137
3466.063325	0.300097	103.027344	294.921875
3466.067326	0.655332	103.027344	294.921875
3466.071326	0.652241	103.027344	294.921875
3466.073326	0.651333	7.164668	0.331373
3467.097341	0.656177	462.011719	-27.734375
3467.099343	0.654100	7.195101	0.369422
3468.141884	0.513456	108.496094	275.976562
3468.143886	0.655268	108.496094	275.976562
3468.145886	0.653970	7.193675	0.313041
3469.170855	0.410233	455.957031	-27.441406
3469.172855	0.640807	455.957031	-27.441406
3469.174857	0.654529	455.957031	-27.441406
3469.176856	0.653018	7.183199	0.320526
3470.218890	0.609823	105.664062	286.328125
3470.220891	0.654481	105.664062	286.328125
3470.222893	0.652636	7.178998	0.325313
3471.248932	0.622123	452.343750	-27.246094
3471.250932	0.654820	452.343750	-27.246094
3471.252932	0.653160	7.184759	0.309419
3472.292987	0.284159	109.375000	277.050781
3472.294987	0.579340	109.375000	277.050781
3472.296987	0.655286	109.375000	277.050781
3472.298987	0.653271	7.185982	0.328993
3473.323952	0.613926	453.417969	-26.953125
3473.325953	0.655350	453.417969	-26.953125
3473.327955	0.653561	7.189172	0.316395
3474.372037	0.591789	107.910156	283.593750
3474.374038	0.655071	107.910156	283.593750
3474.376039	0.653091	7.183997	0.314927
3475.398646	0.503724	459.960937	-27.050781
3475.400649	0.655651	459.960937	-27.050781
3475.402650	0.654680	7.201482	0.310537
3476.446673	0.419801	104.980469	293.359375
3476.448674	0.643236	104.980469	293.359375
3476.450674	0.654227	104.980469	293.359375
3476.454674	0.651678	7.168461	0.314498
3477.476726	0.651671	459.277344	-26.757812
3477.478728	0.655653	459.277344	-26.757812
3477.480727	0.654128	7.195412	0.310942
3478.522753	0.325470	106.054687	291.503906
3478.524755	0.604727	106.054687	291.503906
3478.526757	0.654925	106.054687	291.503906
3478.528756	0.653096	7.184059	0.314844
3479.550775	0.576969	461.132812	-27.050781
3479.552775	0.654898	461.132812	-27.050781
3479.554775	0.652852	7.181373	0.318157
3480.599298	0.503531	102.246094	304.394531
3480.601297	0.654761	102.246094	304.394531
3480.603299	0.653924	7.193169	0.311594
3481.629347	0.654923	450.976562	-26.953125
3481.631349	0.654251	7.196759	0.304542
3482.677355	0.654086	107.421875	284.179687
3482.679358	0.653899	107.421875	284.179687
3482.681359	0.652518	7.177696	0.313013
3483.703915	0.553726	456.054687	-26.953125
3483.705915	0.655766	456.054687	-26.953125
3483.707914	0.653680	7.190484	0.405876
3484.753961	0.655302	100.390625	311.328125
3484.757960	0.652544	7.177979	0.309461
3485.780013	0.511522	455.761719	-27.148437
3485.782014	0.655420	455.761719	-27.148437
3485.784013	0.654054	7.194596	0.304771
3486.828053	0.508096	107.031250	287.988281
3486.830055	0.655952	107.031250	287.988281
3486.832056	0.654799	7.202785	0.307007
3487.858632	0.655511	453.808594	-27.441406
3487.860634	0.653449	7.187940	0.497891
3488.906662	0.655437	100.097656	311.914062
3488.908664	0.653489	7.188375	0.632363
3489.932722	0.492759	458.984375	-27.636719
3489.934722	0.654417	458.984375	-27.636719
3489.938721	0.652640	7.179043	0.301927
3490.978734	0.452246	108.789062	280.957031
3490.980735	0.650434	108.789062	280.957031
3490.982736	0.654526	108.789062	280.957031
3490.984734	0.653004	7.183040	0.314000
3492.011689	0.656014	463.183594	-27.734375
3492.013691	0.653985	7.193834	0.628864
3493.057773	0.655628	100.585937	310.644531
3493.059774	0.653685	7.190537	0.347736
3494.085802	0.491070	453.125000	-27.539062
3494.087805	0.654701	453.125000	-27.539062
3494.089804	0.654513	7.199639	0.310861
3495.131887	0.645788	99.707031	315.234375
3495.133888	0.654033	99.707031	315.234375
3495.135888	0.652565	7.178210	0.307638
3496.161905	0.520594	459.765625	-27.832031
3496.163907	0.655247	459.765625	-27.832031
3496.165906	0.653686	7.190546	0.304457
3497.205947	0.492689	108.398437	282.519531
3497.207949	0.653930	108.398437	282.519531
3497.209949	0.653641	7.190050	0.313094
3498.237956	0.387485	455.761719	-27.929687
3498.239958	0.633080	455.761719	-27.929687
3498.241956	0.654530	455.761719	-27.929687
3498.243958	0.652811	7.180922	0.305992
3499.282033	0.483639	104.980469	295.214844
3499.284035	0.653758	104.980469	295.214844
3499.286036	0.654007	7.194073	0.304041
3500.314590	0.422463	461.132812	-28.613281
3500.316592	0.432120	461.132812	-28.613281
3500.320590	0.652755	461.132812	-28.613281
3500.322593	0.651713	7.168842	0.304070
3501.356658	0.445316	104.003906	297.851562
3501.358660	0.648455	104.003906	297.851562
3501.360660	0.653665	104.003906	297.851562
3501.362659	0.652111	7.173220	0.309238
3502.392691	0.553925	458.691406	-29.003906
3502.394693	0.655500	458.691406	-29.003906
3502.396692	0.653481	7.188286	0.401342
3503.432774	0.399086	100.097656	312.402344
3503.434777	0.637296	100.097656	312.402344
3503.436775	0.654565	100.097656	312.402344
3503.438776	0.652976	7.182738	0.305737
3504.468865	0.555952	454.882812	-28.417969
3504.470865	0.655909	454.882812	-28.417969
3504.472867	0.653877	7.192647	0.404333
3505.508885	0.506348	102.148437	304.394531
3505.510886	0.511099	102.148437	304.394531
3505.512886	0.654142	7.195562	0.301930
3506.544933	0.431817	460.742187	-29.199219
3506.546935	0.646294	460.742187	-29.199219
3506.548935	0.654318	460.742187	-29.199219
3506.550933	0.652876	7.181640	0.300968
3507.583506	0.388553	102.441406	303.808594
3507.585508	0.633484	102.441406	303.808594
3507.587506	0.654455	102.441406	303.808594
3507.589506	0.652761	7.180372	0.307555
3508.621528	0.497368	453.417969	-28.710937
3508.623529	0.654438	453.417969	-28.710937
3508.625528	0.653817	7.191991	0.301167
3509.661578	0.628248	104.199219	296.972656
3509.663580	0.654266	104.199219	296.972656
3509.665579	0.652655	7.179203	0.302869
3510.698130	0.524787	462.988281	-29.199219
3510.700132	0.655751	462.988281	-29.199219
3510.704131	0.652759	7.180355	0.302579
3511.736692	0.552763	103.710937	300.390625
3511.738693	0.655387	103.710937	300.390625
3511.740693	0.653430	7.187728	0.383129
3512.775266	0.639603	462.597656	-28.906250
3512.777267	0.654236	462.597656	-28.906250
3512.781266	0.651628	7.167912	0.299918
3513.811824	0.481597	100.976562	311.132812
3513.813824	0.654375	100.976562	311.132812
3513.815825	0.654791	7.202705	0.303158
3514.849878	0.437915	453.125000	-28.515625
3514.853880	0.654197	453.125000	-28.515625
3514.855879	0.652668	453.125000	-28.515625
3514.857880	0.651646	7.168107	0.299972
3515.889917	0.634212	97.070312	324.218750
3515.893916	0.652664	97.070312	324.218750
3515.895919	0.651626	7.167885	0.301941
3516.925972	0.469674	453.710937	-29.589844
3516.929972	0.653714	453.710937	-29.589844
3516.931974	0.652324	7.175560	0.297155
3517.966047	0.594446	102.441406	303.515625
3517.970047	0.653021	102.441406	303.515625
3517.972048	0.651929	7.171217	0.614738
3519.000548	0.383527	451.562500	-28.808594
3519.002550	0.631481	451.562500	-28.808594
3519.004550	0.654272	451.562500	-28.808594
3519.006550	0.652555	7.178103	0.301767
3520.040608	0.410566	102.539062	304.687500
3520.042611	0.640403	102.539062	304.687500
3520.044610	0.653980	102.539062	304.687500
3520.046609	0.652338	7.175720	0.300487
3521.078691	0.588505	452.343750	-29.101562
3521.080693	0.655702	452.343750	-29.101562
3521.082694	0.653691	7.190599	0.306109
3522.116723	0.443458	102.050781	308.398437
3522.118725	0.648121	102.050781	308.398437
3522.122723	0.652189	102.050781	308.398437
3522.124725	0.651144	7.162586	0.302172
3523.152805	0.330173	450.292969	-29.003906
3523.154807	0.607144	450.292969	-29.003906
3523.156807	0.654733	450.292969	-29.003906
3523.160806	0.651748	7.169223	0.295809
3524.194892	0.578589	98.925781	318.457031
3524.196894	0.655297	98.925781	318.457031
3524.198892	0.653278	7.186062	0.521101
3525.228950	0.524833	463.378906	-29.199219
3525.230950	0.655582	463.378906	-29.199219
3525.232953	0.653916	7.193072	0.294599
3526.272990	0.655265	96.972656	325.195312
3526.274992	0.654181	7.195988	0.292538
3527.304994	0.471005	450.097656	-28.613281
3527.306998	0.652457	450.097656	-28.613281
3527.308996	0.653940	7.193337	0.292901
3528.347056	0.492048	102.929687	304.003906
3528.349058	0.654009	102.929687	304.003906
3528.351057	0.653717	7.190891	0.304459
3529.381559	0.589699	454.687500	-29.199219
3529.383560	0.654849	454.687500	-29.199219
3529.385560	0.652905	7.181959	0.295785
3530.423613	0.475451	105.468750	294.726562
3530.425616	0.652653	105.468750	294.726562
3530.427615	0.653684	7.190520	0.294164
3531.455643	1.616833	449.218750	-28.613281
3531.457644	0.650111	449.218750	-28.613281
3531.459645	0.654285	449.218750	-28.613281
3531.461644	0.652842	7.181259	0.294179
3532.499691	0.383655	100.000000	316.113281
3532.501692	0.631752	100.000000	316.113281
3532.503695	0.654539	100.000000	316.113281
3532.505695	0.652959	7.182552	0.294095
3533.531765	0.520087	448.437500	-28.320312
3533.533767	0.655659	448.437500	-28.320312
3533.535769	0.654140	7.195545	0.289568
3534.575817	0.336448	98.632812	322.851562
3534.577820	0.610722	98.632812	322.851562
3534.579819	0.655127	98.632812	322.851562
3534.581819	0.653338	7.186718	0.304107
3535.607892	0.516902	445.605469	-28.027344
3535.609893	0.655447	445.605469	-28.027344
3535.611895	0.654028	7.194304	0.294046
3536.651943	0.333746	105.273437	298.535156
3536.653944	0.609228	105.273437	298.535156
3536.655944	0.654940	105.273437	298.535156
3536.657944	0.653068	7.183749	0.297399
3537.681954	0.392067	454.882812	-28.027344
3537.683956	0.634374	454.882812	-28.027344
3537.685955	0.653962	454.882812	-28.027344
3537.687957	0.652329	7.175622	0.293129
3538.727999	0.232799	100.585937	316.113281
3538.730001	0.541767	100.585937	316.113281
3538.732001	0.656104	100.585937	316.113281
3538.733999	0.654046	7.194507	0.297178
3539.760072	0.652009	447.460937	-27.929687
3539.762074	0.654467	447.460937	-27.929687
3539.764073	0.653066	7.183731	0.297712
3540.806202	0.511697	102.246094	310.839844
3540.808205	0.655842	102.246094	310.839844
3540.810206	0.654532	7.199852	0.289054
3541.834746	0.462968	459.472656	-28.320312
3541.836746	0.651720	459.472656	-28.320312
3541.838746	0.653932	459.472656	-28.320312
3541.840747	0.652511	7.177616	0.285905
3542.882752	0.591002	101.367187	312.402344
3542.884753	0.655205	101.367187	312.402344
3542.886753	0.653261	7.185876	0.599776
3543.909334	0.257755	447.167969	-28.320312
3543.911335	0.560550	447.167969	-28.320312
3543.913334	0.655892	447.167969	-28.320312
3543.915336	0.653841	7.192248	0.299435
3544.959374	0.628304	96.191406	329.882812
3544.961376	0.654422	96.191406	329.882812
3544.963378	0.652747	7.180213	0.294322
3545.987449	0.481568	457.910156	-28.417969
3545.989450	0.655128	457.910156	-28.417969
3545.991450	0.653115	7.184263	0.290779
3547.036388	0.655620	99.609375	319.824219
3547.038391	0.653678	99.609375	319.824219
3547.040391	0.652415	7.176561	0.323566
3548.062445	0.423608	454.003906	-28.027344
3548.064449	0.643924	454.003906	-28.027344
3548.066447	0.653941	454.003906	-28.027344
3548.068452	0.652449	7.176942	0.286268
3549.113006	0.654691	102.050781	310.644531
3549.115007	0.653945	7.193391	0.285631
3550.139555	0.526769	450.976562	-28.320312
3550.141555	0.655496	450.976562	-28.320312
3550.143555	0.653725	7.190971	0.283182
3551.187572	0.640890	95.312500	334.765625
3551.189574	0.654350	95.312500	334.765625
3551.191572	0.652786	7.180647	0.291255
3552.215630	0.514858	444.921875	-28.125000
3552.217631	0.655201	444.921875	-28.125000
3552.219627	0.653800	7.191795	0.279913
3553.261665	0.481584	103.417969	305.468750
3553.263666	0.653644	103.417969	305.468750
3553.265666	0.654080	7.194880	0.289415
3554.292626	0.629048	450.292969	-28.710937
3554.294629	0.654401	450.292969	-28.710937
3554.296633	0.652754	7.180292	0.285665
3555.338709	0.534012	104.492187	300.781250
3555.340710	0.655271	104.492187	300.781250
3555.342709	0.653493	7.188419	0.292794
3556.368765	0.608013	444.433594	-28.808594
3556.370766	0.654625	444.433594	-28.808594
3556.372766	0.652823	7.181055	0.286363
3557.414768	0.582181	95.019531	335.546875
3557.416767	0.655272	95.019531	335.546875
3557.418770	0.653255	7.185805	0.288504
3558.444819	0.573073	441.503906	-29.003906
3558.446821	0.655254	441.503906	-29.003906
3558.450819	0.651992	7.171917	0.484012
3559.488892	0.446329	99.218750	319.335937
3559.490897	0.649119	99.218750	319.335937
3559.492896	0.654084	99.218750	319.335937
3559.494898	0.652587	7.178458	0.288515
3560.518930	1.072672	457.519531	-29.785156
3560.520934	0.633415	457.519531	-29.785156
3560.522937	0.654030	457.519531	-29.785156
3560.524939	0.652428	7.176703	0.295434
3561.565894	0.531101	96.679687	329.394531
3561.567896	0.655923	96.679687	329.394531
3561.569895	0.654067	7.194738	0.284237
3562.595942	0.321220	441.503906	-29.199219
3562.597945	0.602075	441.503906	-29.199219
3562.599946	0.654375	441.503906	-29.199219
3562.601945	0.652525	7.177776	0.290932
3563.640454	0.486563	98.828125	321.582031
3563.642454	0.493547	98.828125	321.582031
3563.644457	0.653558	7.189137	0.286904
3564.672504	0.346048	448.730469	-29.492187
3564.674507	0.615247	448.730469	-29.492187
3564.676505	0.654370	448.730469	-29.492187
3564.678506	0.652589	7.178475	0.284393
3565.716551	0.397338	94.921875	335.839844
3565.718552	0.636420	94.921875	335.839844
3565.720555	0.654268	94.921875	335.839844
3565.722555	0.652648	7.179132	0.284303
3566.748611	0.295869	443.750000	-29.296875
3566.750612	0.586941	443.750000	-29.296875
3566.752614	0.655026	443.750000	-29.296875
3566.754613	0.653073	7.183802	0.293358
3567.792664	0.543339	98.535156	324.218750
3567.794664	0.656030	98.535156	324.218750
3567.796668	0.653997	7.193967	0.326419
3568.826740	0.555555	451.367187	-29.980469
3568.828742	0.656502	451.367187	-29.980469
3568.830743	0.654326	7.197591	0.385538
3569.868786	0.618762	100.488281	317.187500
3569.870788	0.654700	100.488281	317.187500
3569.872788	0.652941	7.182348	0.288740
3570.901349	0.321529	447.265625	-29.687500
3570.903352	0.602349	447.265625	-29.687500
3570.905351	0.654891	447.265625	-29.687500
3570.907357	0.653033	7.183359	0.284123
3571.943408	0.463611	101.757812	311.328125
3571.945409	0.651209	101.757812	311.328125
3571.947409	0.653410	7.187515	0.281679
3572.981428	0.655100	453.027344	-30.078125
3572.983429	0.653266	7.185929	0.294684
3574.019982	0.629289	94.140625	340.332031
3574.021982	0.654914	94.140625	340.332031
3574.023984	0.653305	7.186354	0.917161
3575.056022	0.524360	454.101562	-29.980469
3575.058025	0.655033	454.101562	-29.980469
3575.060026	0.653400	7.187400	0.275986
3576.096525	0.635889	99.511719	319.824219
3576.098526	0.654220	99.511719	319.824219
3576.100528	0.652592	7.178512	0.284500
3577.131162	0.370398	450.390625	-30.175781
3577.135161	0.655009	450.390625	-30.175781
3577.137163	0.653302	450.390625	-30.175781
3577.139163	0.652251	7.174762	0.279722
3578.171181	0.575729	100.292969	318.945312
3578.173181	0.654979	100.292969	318.945312
3578.175184	0.652942	7.182366	0.286506
3579.207702	0.349455	458.984375	-30.273437
3579.209704	0.617103	458.984375	-30.273437
3579.213702	0.653059	458.984375	-30.273437
3579.215704	0.652009	7.172094	0.278652
3580.247745	0.562087	101.269531	315.917969
3580.249747	0.655807	101.269531	315.917969
3580.251747	0.653748	7.191228	0.422639
3581.283805	0.532504	452.050781	-29.589844
3581.287805	0.653841	452.050781	-29.589844
3581.289808	0.652652	7.179175	0.278213
3582.321837	0.412847	96.289062	335.156250
3582.323839	0.641044	96.289062	335.156250
3582.325838	0.654041	96.289062	335.156250
3582.327839	0.652468	7.177146	0.284635
3583.357902	0.337433	454.589844	-29.785156
3583.359901	0.610805	454.589844	-29.785156
3583.361901	0.654364	454.589844	-29.785156
3583.363903	0.654252	7.196776	0.287559
3584.398436	0.441724	98.828125	324.218750
3584.400439	0.647649	98.828125	324.218750
3584.402437	0.653506	98.828125	324.218750
3584.404439	0.651965	7.171616	0.280848
3585.438452	0.655518	451.757812	-30.273437
3585.440456	0.653468	7.188153	0.480338
3586.475034	0.430461	96.289062	333.203125
3586.477036	0.645560	96.289062	333.203125
3586.479036	0.653929	96.289062	333.203125
3586.481037	0.652467	7.177137	0.281521
3587.511077	0.351887	444.335937	-29.882812
3587.513081	0.618071	444.335937	-29.882812
3587.515082	0.654461	444.335937	-29.882812
3587.517087	0.652747	7.180222	0.285658
3588.551112	0.456163	97.167969	332.226562
3588.553112	0.652008	97.167969	332.226562
3588.555112	0.655499	97.167969	332.226562
3588.557111	0.654035	7.194384	0.280712
3589.587166	0.381150	448.925781	-29.589844
3589.589166	0.630602	448.925781	-29.589844
3589.591166	0.654324	448.925781	-29.589844
3589.593167	0.652647	7.179122	0.277728
3590.627241	0.452390	98.925781	325.781250
3590.629242	0.650236	98.925781	325.781250
3590.631242	0.654217	98.925781	325.781250
3590.633242	0.652689	7.179575	0.281019
3591.665271	0.641191	450.292969	-29.785156
3591.667272	0.654132	450.292969	-29.785156
3591.669274	0.652542	7.177961	0.274359
3592.703812	0.475397	101.660156	315.429687
3592.705814	0.652698	101.660156	315.429687
3592.707815	0.653760	7.191361	0.285699
3593.738764	0.506646	451.953125	-29.589844
3593.740765	0.654862	451.953125	-29.589844
3593.742765	0.653759	7.191344	0.285374
3594.781329	0.524542	100.878906	318.066406
3594.783330	0.655476	100.878906	318.066406
3594.785331	0.653754	7.191299	0.274218
3595.817329	0.655659	442.675781	-29.394531
3595.819333	0.655622	7.211842	0.403025
3596.859422	0.655243	99.902344	322.070312
3596.861424	0.653875	7.192629	0.274545
3597.889989	0.496049	446.777344	-29.882812
3597.891993	0.654128	446.777344	-29.882812
3597.893992	0.653627	7.189899	0.274112
3598.938044	0.654096	100.195312	319.042969
3598.940043	0.652657	7.179229	0.274161
3599.965027	0.280903	440.136719	-29.589844
3599.967030	0.576955	440.136719	-29.589844
3599.969029	0.655312	440.136719	-29.589844
3599.971030	0.653287	7.186160	0.282131
3601.009067	0.333422	94.531250	340.625000
3601.011071	0.608830	94.531250	340.625000
3601.013071	0.654496	94.531250	340.625000
3601.015074	0.654344	7.197787	0.278150
3602.041183	0.552440	454.882812	-29.882812
3602.045183	0.653419	454.882812	-29.882812
3602.047185	0.652201	7.174213	0.278516
3603.088146	0.646959	98.925781	325.292969
3603.090149	0.653903	98.925781	325.292969
3603.092149	0.652350	7.175852	0.274324
3604.116740	0.467474	441.796875	-29.394531
3604.118740	0.652578	441.796875	-29.394531
3604.120741	0.654417	7.198584	0.273299
3605.162748	0.466116	100.195312	318.750000
3605.164748	0.652279	100.195312	318.750000
3605.166748	0.654226	7.196484	0.274146
3606.191725	0.322971	443.164062	-29.394531
3606.193729	0.603593	443.164062	-29.394531
3606.195728	0.655416	443.164062	-29.394531
3606.197727	0.653451	7.187958	0.275633
3607.237812	0.334840	98.925781	326.464844
3607.239813	0.609596	98.925781	326.464844
3607.241812	0.654662	98.925781	326.464844
3607.243812	0.652861	7.181471	0.278635
3608.268433	0.449716	437.011719	-28.808594
3608.270434	0.649374	437.011719	-28.808594
3608.272434	0.653738	437.011719	-28.808594
3608.274435	0.652247	7.174718	0.275518
3609.314504	0.455226	97.851562	330.664062
3609.316502	0.651663	97.851562	330.664062
3609.318503	0.655204	97.851562	330.664062
3609.322501	0.652722	7.179938	0.276990
3610.344500	0.434258	438.476562	-28.906250
3610.346500	0.646910	438.476562	-28.906250
3610.348501	0.654528	438.476562	-28.906250
3610.350501	0.653008	7.183084	0.270423
3611.390572	1.611413	94.726562	344.140625
3611.392575	0.638910	94.726562	344.140625
3611.394574	0.654249	94.726562	344.140625
3611.396574	0.652699	7.179689	0.278635
3612.422614	0.655792	448.144531	-28.808594
3612.424615	0.653802	7.191823	0.640138
3613.467203	0.477591	93.750000	348.925781
3613.469208	0.653946	93.750000	348.925781
3613.471206	0.654735	7.202085	0.272708
3614.495226	0.305999	449.023437	-28.808594
3614.497226	0.593215	449.023437	-28.808594
3614.499228	0.654658	449.023437	-28.808594
3614.501226	0.652736	7.180098	0.274914
3615.545767	0.654535	99.609375	326.367187
3615.549770	0.652535	7.177882	0.278980
3616.572335	0.494100	440.429687	-28.613281
3616.574335	0.654244	440.429687	-28.613281
3616.576337	0.653859	7.192451	0.269048
3617.618361	0.335009	93.652344	347.949219
3617.620360	0.609998	93.652344	347.949219
3617.622363	0.655130	93.652344	347.949219
3617.624361	0.653267	7.185938	0.283382
3618.648402	0.479956	451.367187	-29.296875
3618.650402	0.653886	451.367187	-29.296875
3618.652403	0.654475	7.199222	0.267010
3619.696403	0.573907	93.847656	348.339844
3619.698406	0.655309	93.847656	348.339844
3619.700405	0.653269	7.185956	0.484256
3620.724418	0.374552	449.218750	-29.296875
3620.726419	0.628242	449.218750	-29.296875
3620.728419	0.654631	449.218750	-29.296875
3620.730419	0.652963	7.182588	0.276793
3621.772967	0.653989	92.285156	354.296875
3621.774967	0.654173	7.195899	0.271090
3622.800973	0.358411	439.843750	-29.003906
3622.802974	0.621368	439.843750	-29.003906
3622.804975	0.654760	439.843750	-29.003906
3622.808973	0.651892	7.170809	0.268244
3623.847012	0.480529	100.195312	324.707031
3623.849015	0.653537	100.195312	324.707031
3623.851015	0.654057	7.194623	0.277171
3624.875994	0.339537	447.949219	-29.101562
3624.877995	0.612001	447.949219	-29.101562
3624.879999	0.654523	447.949219	-29.101562
3624.881999	0.652749	7.180239	0.268755
3625.922554	0.345572	94.628906	344.726562
3625.924558	0.615165	94.628906	344.726562
3625.926556	0.654694	94.628906	344.726562
3625.928557	0.652940	7.182340	0.271799
3626.954617	0.640313	434.472656	-29.199219
3626.956618	0.653861	434.472656	-29.199219
3626.958618	0.652316	7.175480	0.267247
3627.998664	0.495720	97.949219	331.152344
3628.000668	0.654307	97.949219	331.152344
3628.002667	0.653832	7.192150	0.277376
3629.031262	0.640282	434.179687	-29.199219
3629.033264	0.654525	434.179687	-29.199219
3629.035264	0.652966	7.182623	0.265452
3630.073316	0.300607	99.414062	324.902344
3630.075318	0.589812	99.414062	324.902344
3630.079317	0.652776	99.414062	324.902344
3630.081321	0.651646	7.168107	0.281809
3631.104304	0.272332	437.109375	-29.882812
3631.106314	0.570985	437.109375	-29.882812
3631.108314	0.654876	437.109375	-29.882812
3631.110315	0.652801	7.180815	0.278637
3632.150349	0.549904	99.707031	324.609375
3632.152348	0.656055	99.707031	324.609375
3632.154350	0.653959	7.193551	0.273747
3633.182883	0.526264	441.894531	-30.468750
3633.184884	0.655707	441.894531	-30.468750
3633.186884	0.653934	7.193276	0.265708
3634.224955	0.355553	100.390625	321.093750
3634.226957	0.619891	100.390625	321.093750
3634.228957	0.654428	100.390625	321.093750
3634.230957	0.652745	7.180195	0.269268
3635.258953	0.513350	438.085937	-30.761719
3635.260955	0.655006	438.085937	-30.761719
3635.262956	0.653695	7.190643	0.265548
3636.301031	0.383522	95.605469	338.281250
3636.303032	0.631539	95.605469	338.281250
3636.305033	0.654370	95.605469	338.281250
3636.307033	0.652726	7.179982	0.267745
3637.335070	0.469847	449.707031	-31.054687
3637.337072	0.652493	449.707031	-31.054687
3637.339071	0.654009	7.194100	0.271463
3638.376033	0.362087	99.609375	324.511719
3638.378035	0.623064	99.609375	324.511719
3638.380035	0.654811	99.609375	324.511719
3638.382035	0.653079	7.183864	0.268789
3639.410987	0.313234	441.113281	-30.468750
3639.412990	0.597750	441.113281	-30.468750
3639.414989	0.654998	441.113281	-30.468750
3639.416989	0.653138	7.184520	0.265862
3640.452984	1.568044	92.382812	350.976562
3640.454986	0.654954	92.382812	350.976562
3640.456986	0.653426	7.187683	0.267825
3641.487072	0.381157	449.414062	-30.859375
3641.489071	0.630675	449.414062	-30.859375
3641.491071	0.654332	449.414062	-30.859375
3641.493071	0.652665	7.179318	0.267717
3642.527652	0.372807	96.875000	334.179687
3642.529654	0.627372	96.875000	334.179687
3642.531653	0.654342	96.875000	334.179687
3642.533654	0.652627	7.178892	0.268096
